"BIO-KINE ASCII FILE"
"_COMMENT"	"MOS-500 Spectrometer"
"_COMMENT"	"Kinetics measurement"
"_COMMENT"	"Y Unit : Volt,  X Unit : s"
"_COMMENT"	"Excitation wavelength : 380 nm"
"_COMMENT"	"Fentes bandwidth =  1 nm"
"_COMMENT"	"HV= 800V"
"_COMMENT"	"Timebase  1 =  .01 s   3001 pts"
"_SFM"	"SFM-400 /S  Advanced mode"
"_SFM"	"Ratio : S1: 2.5, S2: 0, S3: 0, S4: 1"
"_SFM"	"Content : S1: , S2: , S3: , S4:"
"_SFM"	"Concentration : S1: , S2: , S3: , S4:"
"_SFM"	"Total volume : 209 µl  Flow : 3.5 mL/s"
"_SFM"	"Acquisition start :  10 ms before stop"
"_SFM"	"cuve=FC-15, s1=10 ml , s2=10 ml , s3=10 ml , s4=1.9 ml"
"_UNITX"	"s"
"_UNITY"	"Volt"
"_DELTAX"	0
"_DATA"
1e-300	6.04537
0.01	6.41545
0.02	6.62302
0.03	6.71513
0.04	6.71315
0.05	6.70427
0.06	6.7375
0.07	6.70723
0.08	6.70197
0.09	6.72664
0.1	6.74473
0.11	6.74473
0.12	6.72467
0.13	6.73158
0.14	6.74638
0.15	6.74013
0.16	6.72697
0.17	6.74276
0.18	6.71875
0.19	6.71217
0.2	6.73026
0.21	6.71809
0.22	6.71907
0.23	6.70296
0.24	6.71118
0.25	6.70723
0.26	6.71085
0.27	6.70526
0.28	6.69703
0.29	6.70526
0.3	6.72204
0.31	6.68848
0.32	6.68585
0.33	6.69111
0.34	6.67763
0.35	6.68223
0.36	6.68421
0.37	6.6717
0.38	6.6694
0.39	6.66447
0.4	6.66776
0.41	6.67138
0.42	6.6717
0.43	6.64144
0.44	6.63618
0.45	6.64144
0.46	6.63914
0.47	6.62006
0.48	6.61447
0.49	6.6092
0.5	6.6092
0.51	6.61118
0.52	6.59407
0.53	6.62072
0.54	6.60164
0.55	6.57598
0.56	6.60164
0.57	6.58157
0.58	6.58026
0.59	6.58289
0.6	6.5819
0.61	6.57006
0.62	6.55591
0.63	6.55624
0.64	6.56973
0.65	6.54999
0.66	6.54868
0.67	6.54736
0.68	6.55196
0.69	6.55229
0.7	6.53815
0.71	6.49999
0.72	6.5092
0.73	6.52039
0.74	6.52696
0.75	6.52335
0.76	6.52203
0.77	6.47992
0.78	6.48815
0.79	6.50887
0.8	6.48354
0.81	6.47992
0.82	6.49736
0.83	6.47828
0.84	6.48749
0.85	6.4592
0.86	6.46709
0.87	6.45229
0.88	6.44111
0.89	6.44637
0.9	6.45492
0.91	6.44769
0.92	6.45788
0.93	6.44341
0.94	6.39867
0.95	6.43913
0.96	6.42762
0.97	6.3786
0.98	6.40591
0.99	6.41413
1	6.38518
1.01	6.39933
1.02	6.4069
1.03	6.39604
1.04	6.39308
1.05	6.38782
1.06	6.39341
1.07	6.38091
1.08	6.36117
1.09	6.35854
1.1	6.37762
1.11	6.34999
1.12	6.3592
1.13	6.35031
1.14	6.34374
1.15	6.33485
1.16	6.35262
1.17	6.3342
1.18	6.34176
1.19	6.32071
1.2	6.31512
1.21	6.30623
1.22	6.29834
1.23	6.29538
1.24	6.30426
1.25	6.30327
1.26	6.29341
1.27	6.29242
1.28	6.32038
1.29	6.27794
1.3	6.27762
1.31	6.28288
1.32	6.27729
1.33	6.26906
1.34	6.26117
1.35	6.26873
1.36	6.2661
1.37	6.2615
1.38	6.25031
1.39	6.25886
1.4	6.21906
1.41	6.22959
1.42	6.23156
1.43	6.21709
1.44	6.2184
1.45	6.22268
1.46	6.21347
1.47	6.18814
1.48	6.19307
1.49	6.18814
1.5	6.17827
1.51	6.18617
1.52	6.17038
1.53	6.18485
1.54	6.15689
1.55	6.15031
1.56	6.17202
1.57	6.15886
1.58	6.14603
1.59	6.16018
1.6	6.17103
1.61	6.16149
1.62	6.14801
1.63	6.14505
1.64	6.12366
1.65	6.13814
1.66	6.12268
1.67	6.12333
1.68	6.12004
1.69	6.11379
1.7	6.11939
1.71	6.09669
1.72	6.10261
1.73	6.09603
1.74	6.09143
1.75	6.08254
1.76	6.10129
1.77	6.08452
1.78	6.07925
1.79	6.06248
1.8	6.06544
1.81	6.07465
1.82	6.05689
1.83	6.06182
1.84	6.0661
1.85	6.05524
1.86	6.04504
1.87	6.05096
1.88	6.02794
1.89	6.02399
1.9	6.00886
1.91	6.03254
1.92	6.02366
1.93	6.02136
1.94	6.01938
1.95	6.00228
1.96	6.00327
1.97	5.99636
1.98	5.99866
1.99	5.99636
2	5.97728
2.01	5.96971
2.02	5.96116
2.03	5.96346
2.04	5.98879
2.05	5.95228
2.06	5.94043
2.07	5.94241
2.08	5.94899
2.09	5.95787
2.1	5.95063
2.11	5.92497
2.12	5.93846
2.13	5.93945
2.14	5.93155
2.15	5.91412
2.16	5.91017
2.17	5.91247
2.18	5.91116
2.19	5.93089
2.2	5.90951
2.21	5.87366
2.22	5.86313
2.23	5.88089
2.24	5.87727
2.25	5.89175
2.26	5.87596
2.27	5.86971
2.28	5.86675
2.29	5.85326
2.3	5.85392
2.31	5.86938
2.32	5.86576
2.33	5.8605
2.34	5.848
2.35	5.84339
2.36	5.82859
2.37	5.8049
2.38	5.82004
2.39	5.83714
2.4	5.82859
2.41	5.81477
2.42	5.80688
2.43	5.81543
2.44	5.79865
2.45	5.80096
2.46	5.78681
2.47	5.798
2.48	5.77431
2.49	5.78451
2.5	5.80194
2.51	5.77069
2.52	5.76872
2.53	5.78418
2.54	5.7605
2.55	5.75951
2.56	5.76971
2.57	5.76148
2.58	5.76971
2.59	5.75424
2.6	5.7174
2.61	5.73451
2.62	5.73977
2.63	5.72826
2.64	5.73385
2.65	5.73813
2.66	5.72168
2.67	5.72332
2.68	5.70786
2.69	5.71378
2.7	5.69339
2.71	5.67826
2.72	5.70227
2.73	5.7174
2.74	5.68319
2.75	5.69536
2.76	5.70786
2.77	5.69898
2.78	5.67431
2.79	5.67562
2.8	5.67266
2.81	5.67431
2.82	5.67003
2.83	5.65885
2.84	5.65753
2.85	5.6572
2.86	5.66839
2.87	5.66279
2.88	5.63944
2.89	5.647
2.9	5.62825
2.91	5.61871
2.92	5.63319
2.93	5.62332
2.94	5.59371
2.95	5.60391
2.96	5.59536
2.97	5.60325
2.98	5.60852
2.99	5.60227
3	5.58319
3.01	5.59306
3.02	5.57727
3.03	5.56246
3.04	5.58746
3.05	5.57529
3.06	5.56608
3.07	5.56641
3.08	5.55095
3.09	5.55194
3.1	5.54273
3.11	5.53516
3.12	5.5345
3.13	5.53648
3.14	5.53746
3.15	5.54207
3.16	5.53516
3.17	5.54305
3.18	5.51707
3.19	5.51016
3.2	5.49832
3.21	5.49865
3.22	5.49207
3.23	5.51575
3.24	5.51246
3.25	5.49832
3.26	5.49042
3.27	5.49042
3.28	5.48286
3.29	5.47463
3.3	5.47266
3.31	5.47825
3.32	5.47957
3.33	5.47529
3.34	5.45818
3.35	5.45424
3.36	5.46608
3.37	5.46246
3.38	5.45128
3.39	5.44667
3.4	5.42956
3.41	5.42792
3.42	5.44831
3.43	5.44239
3.44	5.43022
3.45	5.45292
3.46	5.45029
3.47	5.43154
3.48	5.42331
3.49	5.40785
3.5	5.41048
3.51	5.40785
3.52	5.40687
3.53	5.40127
3.54	5.39798
3.55	5.38548
3.56	5.37298
3.57	5.38647
3.58	5.38581
3.59	5.39305
3.6	5.38516
3.61	5.37496
3.62	5.38285
3.63	5.34963
3.64	5.35752
3.65	5.36542
3.66	5.37594
3.67	5.35029
3.68	5.34469
3.69	5.3289
3.7	5.33647
3.71	5.34173
3.72	5.32989
3.73	5.33022
3.74	5.31871
3.75	5.34469
3.76	5.32989
3.77	5.31805
3.78	5.29601
3.79	5.30456
3.8	5.30588
3.81	5.27989
3.82	5.2937
3.83	5.30686
3.84	5.29568
3.85	5.28976
3.86	5.29338
3.87	5.29732
3.88	5.27463
3.89	5.26805
3.9	5.26772
3.91	5.29469
3.92	5.26541
3.93	5.25291
3.94	5.27397
3.95	5.26509
3.96	5.24239
3.97	5.25193
3.98	5.26377
3.99	5.24173
4	5.25226
4.01	5.24272
4.02	5.24337
4.03	5.21804
4.04	5.22528
4.05	5.23055
4.06	5.22002
4.07	5.2266
4.08	5.21739
4.09	5.21476
4.1	5.20456
4.11	5.20258
4.12	5.19074
4.13	5.20719
4.14	5.21147
4.15	5.20785
4.16	5.21245
4.17	5.20357
4.18	5.21147
4.19	5.18416
4.2	5.16475
4.21	5.16541
4.22	5.17133
4.23	5.18054
4.24	5.171
4.25	5.15949
4.26	5.16015
4.27	5.16771
4.28	5.14765
4.29	5.13712
4.3	5.14403
4.31	5.15817
4.32	5.12429
4.33	5.1437
4.34	5.12166
4.35	5.12133
4.36	5.13021
4.37	5.13087
4.38	5.12331
4.39	5.09205
4.4	5.09929
4.41	5.1187
4.42	5.12363
4.43	5.12561
4.44	5.12561
4.45	5.11113
4.46	5.12363
4.47	5.096
4.48	5.09271
4.49	5.08515
4.5	5.08613
4.51	5.071
4.52	5.07692
4.53	5.07857
4.54	5.07396
4.55	5.07955
4.56	5.071
4.57	5.06607
4.58	5.04633
4.59	5.06771
4.6	5.06672
4.61	5.0483
4.62	5.04436
4.63	5.05258
4.64	5.05653
4.65	5.02791
4.66	5.03449
4.67	5.02264
4.68	5.03021
4.69	5.03317
4.7	5.02297
4.71	5.03021
4.72	5.01047
4.73	5.00981
4.74	5.00784
4.75	5.0108
4.76	5.00356
4.77	5.00653
4.78	5.01113
4.79	4.98909
4.8	4.99468
4.81	4.9937
4.82	4.99304
4.83	4.99567
4.84	4.98054
4.85	4.98054
4.86	4.99468
4.87	4.97231
4.88	4.97067
4.89	4.97429
4.9	4.97988
4.91	4.98087
4.92	4.95291
4.93	4.95192
4.94	4.95258
4.95	4.95225
4.96	4.95126
4.97	4.95027
4.98	4.95784
4.99	4.94106
5	4.9358
5.01	4.9381
5.02	4.94238
5.03	4.95323
5.04	4.94929
5.05	4.92889
5.06	4.90981
5.07	4.9154
5.08	4.91146
5.09	4.92429
5.1	4.91968
5.11	4.92692
5.12	4.91211
5.13	4.90586
5.14	4.90093
5.15	4.91179
5.16	4.88678
5.17	4.88547
5.18	4.90159
5.19	4.88909
5.2	4.88053
5.21	4.88185
5.22	4.87856
5.23	4.87659
5.24	4.87659
5.25	4.88678
5.26	4.85356
5.27	4.86376
5.28	4.86738
5.29	4.84863
5.3	4.84731
5.31	4.86639
5.32	4.87099
5.33	4.85224
5.34	4.84632
5.35	4.84007
5.36	4.84797
5.37	4.85553
5.38	4.85323
5.39	4.81869
5.4	4.82724
5.41	4.83613
5.42	4.82494
5.43	4.82362
5.44	4.82099
5.45	4.81935
5.46	4.83086
5.47	4.82099
5.48	4.8302
5.49	4.82231
5.5	4.8131
5.51	4.80455
5.52	4.8052
5.53	4.79764
5.54	4.7983
5.55	4.79632
5.56	4.78974
5.57	4.80257
5.58	4.78547
5.59	4.77856
5.6	4.78547
5.61	4.80816
5.62	4.79369
5.63	4.7779
5.64	4.77757
5.65	4.7756
5.66	4.76737
5.67	4.77198
5.68	4.77395
5.69	4.77099
5.7	4.76803
5.71	4.76014
5.72	4.76474
5.73	4.73711
5.74	4.73908
5.75	4.76343
5.76	4.73514
5.77	4.73349
5.78	4.75948
5.79	4.73481
5.8	4.74829
5.81	4.75915
5.82	4.74435
5.83	4.72461
5.84	4.73744
5.85	4.74566
5.86	4.7381
5.87	4.7177
5.88	4.71967
5.89	4.71836
5.9	4.70849
5.91	4.73185
5.92	4.72856
5.93	4.70454
5.94	4.69796
5.95	4.70981
5.96	4.70487
5.97	4.68941
5.98	4.68809
5.99	4.69796
6	4.70388
6.01	4.68612
6.02	4.68711
6.03	4.68974
6.04	4.67823
6.05	4.66474
6.06	4.6723
6.07	4.67987
6.08	4.68119
6.09	4.66638
6.1	4.67362
6.11	4.6598
6.12	4.6654
6.13	4.65553
6.14	4.66836
6.15	4.67428
6.16	4.65915
6.17	4.65651
6.18	4.65322
6.19	4.67362
6.2	4.64599
6.21	4.65487
6.22	4.63809
6.23	4.61572
6.24	4.64862
6.25	4.64171
6.26	4.62822
6.27	4.63086
6.28	4.6427
6.29	4.62164
6.3	4.62625
6.31	4.62987
6.32	4.62888
6.33	4.63875
6.34	4.62757
6.35	4.61342
6.36	4.61145
6.37	4.62921
6.38	4.61079
6.39	4.6075
6.4	4.60914
6.41	4.61836
6.42	4.60947
6.43	4.61211
6.44	4.60684
6.45	4.61803
6.46	4.59204
6.47	4.59303
6.48	4.61539
6.49	4.58645
6.5	4.57493
6.51	4.58809
6.52	4.57592
6.53	4.5848
6.54	4.56934
6.55	4.5802
6.56	4.56671
6.57	4.5598
6.58	4.56342
6.59	4.5677
6.6	4.57428
6.61	4.57329
6.62	4.55421
6.63	4.55191
6.64	4.55651
6.65	4.54401
6.66	4.54829
6.67	4.5496
6.68	4.56605
6.69	4.55618
6.7	4.55947
6.71	4.54566
6.72	4.5473
6.73	4.55223
6.74	4.53941
6.75	4.53052
6.76	4.54664
6.77	4.55256
6.78	4.52493
6.79	4.51704
6.8	4.53118
6.81	4.51375
6.82	4.51868
6.83	4.52625
6.84	4.51243
6.85	4.50717
6.86	4.49861
6.87	4.50256
6.88	4.50223
6.89	4.52033
6.9	4.5098
6.91	4.50684
6.92	4.50322
6.93	4.51046
6.94	4.48908
6.95	4.49072
6.96	4.50454
6.97	4.49829
6.98	4.48315
6.99	4.49697
7	4.49993
7.01	4.50026
7.02	4.48842
7.03	4.47526
7.04	4.47756
7.05	4.48151
7.06	4.48019
7.07	4.47032
7.08	4.46835
7.09	4.47855
7.1	4.47427
7.11	4.4825
7.12	4.48973
7.13	4.47921
7.14	4.45684
7.15	4.45322
7.16	4.47361
7.17	4.47131
7.18	4.46013
7.19	4.45618
7.2	4.45388
7.21	4.45552
7.22	4.46736
7.23	4.46013
7.24	4.43874
7.25	4.44532
7.26	4.45289
7.27	4.4473
7.28	4.43776
7.29	4.43644
7.3	4.44763
7.31	4.44039
7.32	4.42624
7.33	4.43874
7.34	4.43381
7.35	4.45026
7.36	4.43743
7.37	4.4167
7.38	4.43513
7.39	4.43545
7.4	4.40881
7.41	4.42789
7.42	4.44269
7.43	4.42657
7.44	4.41802
7.45	4.41966
7.46	4.40848
7.47	4.41473
7.48	4.40289
7.49	4.42559
7.5	4.42098
7.51	4.40815
7.52	4.39466
7.53	4.41407
7.54	4.41868
7.55	4.4121
7.56	4.39762
7.57	4.40453
7.58	4.39697
7.59	4.38677
7.6	4.38512
7.61	4.38644
7.62	4.37756
7.63	4.3894
7.64	4.39499
7.65	4.38183
7.66	4.38381
7.67	4.37558
7.68	4.38578
7.69	4.4042
7.7	4.37295
7.71	4.36868
7.72	4.35585
7.73	4.36243
7.74	4.36637
7.75	4.37164
7.76	4.37526
7.77	4.36736
7.78	4.3542
7.79	4.3542
7.8	4.35585
7.81	4.35058
7.82	4.34729
7.83	4.34861
7.84	4.34697
7.85	4.36374
7.86	4.35354
7.87	4.35453
7.88	4.34598
7.89	4.33282
7.9	4.32591
7.91	4.34466
7.92	4.34433
7.93	4.33907
7.94	4.3394
7.95	4.33381
7.96	4.34368
7.97	4.33611
7.98	4.3371
7.99	4.35519
8	4.32328
8.01	4.31407
8.02	4.31506
8.03	4.33479
8.04	4.30815
8.05	4.3144
8.06	4.32065
8.07	4.33249
8.08	4.32525
8.09	4.30979
8.1	4.31506
8.11	4.32427
8.12	4.33085
8.13	4.32493
8.14	4.31539
8.15	4.31571
8.16	4.30683
8.17	4.31736
8.18	4.31703
8.19	4.31242
8.2	4.29236
8.21	4.29236
8.22	4.28775
8.23	4.3065
8.24	4.2996
8.25	4.29663
8.26	4.29696
8.27	4.30585
8.28	4.30223
8.29	4.31275
8.3	4.30223
8.31	4.29137
8.32	4.28381
8.33	4.29137
8.34	4.29927
8.35	4.29367
8.36	4.28644
8.37	4.27427
8.38	4.26242
8.39	4.27328
8.4	4.26966
8.41	4.2792
8.42	4.26571
8.43	4.28775
8.44	4.28315
8.45	4.26933
8.46	4.27065
8.47	4.26571
8.48	4.26407
8.49	4.26177
8.5	4.26637
8.51	4.25453
8.52	4.26867
8.53	4.26374
8.54	4.269
8.55	4.25815
8.56	4.23775
8.57	4.25288
8.58	4.27032
8.59	4.25255
8.6	4.25716
8.61	4.26341
8.62	4.26308
8.63	4.26209
8.64	4.23282
8.65	4.24598
8.66	4.25124
8.67	4.24959
8.68	4.23611
8.69	4.21801
8.7	4.2463
8.71	4.24795
8.72	4.25321
8.73	4.22986
8.74	4.22591
8.75	4.22887
8.76	4.244
8.77	4.22821
8.78	4.23413
8.79	4.22591
8.8	4.21472
8.81	4.22525
8.82	4.21768
8.83	4.21834
8.84	4.23347
8.85	4.23808
8.86	4.2292
8.87	4.22229
8.88	4.2213
8.89	4.23479
8.9	4.22722
8.91	4.2144
8.92	4.19828
8.93	4.19828
8.94	4.20518
8.95	4.2144
8.96	4.22788
8.97	4.19696
8.98	4.21209
8.99	4.21111
9	4.19268
9.01	4.18972
9.02	4.17854
9.03	4.19959
9.04	4.20354
9.05	4.21078
9.06	4.21341
9.07	4.2213
9.08	4.20716
9.09	4.20025
9.1	4.18249
9.11	4.19071
9.12	4.19137
9.13	4.19926
9.14	4.20782
9.15	4.1963
9.16	4.18249
9.17	4.17689
9.18	4.17262
9.19	4.18676
9.2	4.194
9.21	4.19203
9.22	4.18413
9.23	4.16999
9.24	4.19203
9.25	4.17624
9.26	4.17788
9.27	4.19301
9.28	4.19038
9.29	4.16735
9.3	4.17229
9.31	4.17854
9.32	4.16275
9.33	4.1713
9.34	4.17525
9.35	4.16505
9.36	4.15058
9.37	4.1667
9.38	4.18084
9.39	4.17591
9.4	4.17525
9.41	4.16933
9.42	4.15749
9.43	4.17393
9.44	4.16406
9.45	4.1667
9.46	4.16604
9.47	4.15156
9.48	4.13939
9.49	4.13446
9.5	4.15979
9.51	4.15452
9.52	4.16439
9.53	4.14696
9.54	4.15979
9.55	4.15716
9.56	4.14795
9.57	4.15452
9.58	4.14433
9.59	4.14466
9.6	4.1338
9.61	4.15749
9.62	4.14466
9.63	4.14729
9.64	4.14235
9.65	4.13545
9.66	4.1315
9.67	4.13347
9.68	4.12426
9.69	4.13413
9.7	4.13413
9.71	4.13676
9.72	4.13906
9.73	4.13841
9.74	4.14992
9.75	4.13874
9.76	4.11933
9.77	4.12755
9.78	4.12525
9.79	4.12064
9.8	4.12623
9.81	4.11834
9.82	4.11669
9.83	4.11571
9.84	4.11044
9.85	4.11702
9.86	4.11044
9.87	4.10025
9.88	4.13347
9.89	4.1361
9.9	4.13676
9.91	4.12591
9.92	4.10255
9.93	4.10452
9.94	4.11768
9.95	4.11275
9.96	4.12064
9.97	4.11538
9.98	4.0963
9.99	4.11571
10	4.11044
10.01	4.11472
10.02	4.12459
10.03	4.10156
10.04	4.07525
10.05	4.10222
10.06	4.10979
10.07	4.09038
10.08	4.09893
10.09	4.11604
10.1	4.10387
10.11	4.09498
10.12	4.09597
10.13	4.10189
10.14	4.09334
10.15	4.07426
10.16	4.09235
10.17	4.09367
10.18	4.08347
10.19	4.08544
10.2	4.07886
10.21	4.08939
10.22	4.10123
10.23	4.08775
10.24	4.08577
10.25	4.0736
10.26	4.08709
10.27	4.08446
10.28	4.08347
10.29	4.094
10.3	4.07755
10.31	4.07459
10.32	4.08511
10.33	4.08347
10.34	4.07229
10.35	4.06867
10.36	4.07261
10.37	4.07459
10.38	4.08742
10.39	4.07229
10.4	4.07459
10.41	4.07755
10.42	4.07459
10.43	4.07689
10.44	4.06998
10.45	4.0713
10.46	4.05682
10.47	4.07689
10.48	4.05025
10.49	4.06735
10.5	4.07525
10.51	4.07196
10.52	4.07886
10.53	4.06932
10.54	4.07327
10.55	4.06669
10.56	4.06867
10.57	4.06735
10.58	4.06143
10.59	4.06472
10.6	4.07031
10.61	4.06768
10.62	4.05288
10.63	4.05452
10.64	4.08084
10.65	4.06801
10.66	4.06505
10.67	4.05419
10.68	4.04432
10.69	4.0611
10.7	4.06965
10.71	4.07097
10.72	4.05979
10.73	4.06077
10.74	4.06439
10.75	4.06242
10.76	4.04136
10.77	4.04564
10.78	4.044
10.79	4.05551
10.8	4.04038
10.81	4.05222
10.82	4.04827
10.83	4.04992
10.84	4.03906
10.85	4.05025
10.86	4.04761
10.87	4.0486
10.88	4.04432
10.89	4.03215
10.9	4.02689
10.91	4.02261
10.92	4.03248
10.93	4.02689
10.94	4.02853
10.95	4.02163
10.96	4.04761
10.97	4.04103
10.98	4.03446
10.99	4.02524
11	4.02393
11.01	4.04005
11.02	4.03676
11.03	4.03182
11.04	4.02689
11.05	4.0088
11.06	4.02163
11.07	4.02853
11.08	4.03413
11.09	4.0088
11.1	4.02788
11.11	4.03084
11.12	4.01242
11.13	4.01636
11.14	4.02097
11.15	4.00978
11.16	4.0236
11.17	4.02656
11.18	4.01899
11.19	4.01505
11.2	4.00485
11.21	4.01209
11.22	4.00419
11.23	4.01801
11.24	4.02755
11.25	4.02492
11.26	4.01176
11.27	4.01242
11.28	4.01274
11.29	4.01834
11.3	4.02163
11.31	4.00913
11.32	4.01274
11.33	4.01274
11.34	4.00715
11.35	4.00945
11.36	4.01472
11.37	4.00978
11.38	4.0088
11.39	3.99893
11.4	4.01867
11.41	4.00682
11.42	3.99564
11.43	4.00222
11.44	4.02327
11.45	4.01011
11.46	4.01965
11.47	4.01768
11.48	3.99959
11.49	3.98511
11.5	3.99531
11.51	4.00682
11.52	4.02459
11.53	4.00353
11.54	4.01011
11.55	4.00189
11.56	3.98314
11.57	3.99268
11.58	3.99432
11.59	3.99926
11.6	4.00189
11.61	3.98906
11.62	3.98873
11.63	3.9884
11.64	4.00024
11.65	4.00715
11.66	3.9861
11.67	3.99827
11.68	3.99991
11.69	3.98643
11.7	3.99268
11.71	3.99663
11.72	3.98741
11.73	3.99301
11.74	3.97722
11.75	3.96801
11.76	3.98873
11.77	3.98972
11.78	3.98741
11.79	3.98116
11.8	3.97491
11.81	3.99038
11.82	4.00353
11.83	3.9861
11.84	3.98412
11.85	3.99498
11.86	3.98807
11.87	3.97985
11.88	3.98709
11.89	3.97459
11.9	3.97426
11.91	3.97656
11.92	3.98643
11.93	3.99761
11.94	3.9884
11.95	3.99794
11.96	3.97722
11.97	3.97195
11.98	3.97919
11.99	3.98018
12	3.97294
12.01	3.98051
12.02	3.96932
12.03	3.97952
12.04	3.97623
12.05	3.97426
12.06	3.98643
12.07	3.98676
12.08	3.98248
12.09	3.96833
12.1	3.95616
12.11	3.96307
12.12	3.96505
12.13	3.97031
12.14	3.97755
12.15	3.98972
12.16	3.97557
12.17	3.96274
12.18	3.95485
12.19	3.95551
12.2	3.94136
12.21	3.9588
12.22	3.96735
12.23	3.97557
12.24	3.97491
12.25	3.95616
12.26	3.93972
12.27	3.94926
12.28	3.9759
12.29	3.95945
12.3	3.95945
12.31	3.95616
12.32	3.95748
12.33	3.96768
12.34	3.9509
12.35	3.95715
12.36	3.95682
12.37	3.94169
12.38	3.9384
12.39	3.95057
12.4	3.95616
12.41	3.95748
12.42	3.93807
12.43	3.96274
12.44	3.96537
12.45	3.95222
12.46	3.95156
12.47	3.94728
12.48	3.92491
12.49	3.94399
12.5	3.95682
12.51	3.96274
12.52	3.95386
12.53	3.94926
12.54	3.94794
12.55	3.94629
12.56	3.95847
12.57	3.93906
12.58	3.94103
12.59	3.94004
12.6	3.93018
12.61	3.95649
12.62	3.95024
12.63	3.94037
12.64	3.93708
12.65	3.93445
12.66	3.93379
12.67	3.94761
12.68	3.95189
12.69	3.94629
12.7	3.93939
12.71	3.94268
12.72	3.94926
12.73	3.92261
12.74	3.92261
12.75	3.94926
12.76	3.92458
12.77	3.93741
12.78	3.93741
12.79	3.93741
12.8	3.94662
12.81	3.93412
12.82	3.93873
12.83	3.93807
12.84	3.94301
12.85	3.93379
12.86	3.94202
12.87	3.94037
12.88	3.93708
12.89	3.92985
12.9	3.93741
12.91	3.95583
12.92	3.92886
12.93	3.94465
12.94	3.94629
12.95	3.94301
12.96	3.93018
12.97	3.94432
12.98	3.95254
12.99	3.93906
13	3.92623
13.01	3.92853
13.02	3.92425
13.03	3.94136
13.04	3.94662
13.05	3.92722
13.06	3.93708
13.07	3.93708
13.08	3.92129
13.09	3.92754
13.1	3.93149
13.11	3.93544
13.12	3.92195
13.13	3.9282
13.14	3.92031
13.15	3.94465
13.16	3.92557
13.17	3.9282
13.18	3.93149
13.19	3.94136
13.2	3.93018
13.21	3.9305
13.22	3.94333
13.23	3.94202
13.24	3.93248
13.25	3.92689
13.26	3.90912
13.27	3.90583
13.28	3.92294
13.29	3.91768
13.3	3.90879
13.31	3.92787
13.32	3.89662
13.33	3.90846
13.34	3.92722
13.35	3.91833
13.36	3.92787
13.37	3.92919
13.38	3.90583
13.39	3.91866
13.4	3.9111
13.41	3.90715
13.42	3.90912
13.43	3.91175
13.44	3.91636
13.45	3.90485
13.46	3.90419
13.47	3.90221
13.48	3.91208
13.49	3.92261
13.5	3.92689
13.51	3.93083
13.52	3.92261
13.53	3.90682
13.54	3.9111
13.55	3.90715
13.56	3.90221
13.57	3.91373
13.58	3.90452
13.59	3.90649
13.6	3.8986
13.61	3.90189
13.62	3.90353
13.63	3.90846
13.64	3.91669
13.65	3.90452
13.66	3.91439
13.67	3.91208
13.68	3.89892
13.69	3.90649
13.7	3.89958
13.71	3.88774
13.72	3.89629
13.73	3.89531
13.74	3.89958
13.75	3.91899
13.76	3.91537
13.77	3.89991
13.78	3.90057
13.79	3.90386
13.8	3.89662
13.81	3.88083
13.82	3.89794
13.83	3.91471
13.84	3.92425
13.85	3.90879
13.86	3.91603
13.87	3.89695
13.88	3.8907
13.89	3.88412
13.9	3.89103
13.91	3.90221
13.92	3.90814
13.93	3.90616
13.94	3.89761
13.95	3.89761
13.96	3.90846
13.97	3.88774
13.98	3.90682
13.99	3.88412
14	3.88412
14.01	3.90123
14.02	3.89136
14.03	3.89498
14.04	3.89432
14.05	3.8805
14.06	3.87721
14.07	3.89728
14.08	3.88511
14.09	3.87096
14.1	3.88511
14.11	3.89037
14.12	3.89465
14.13	3.89596
14.14	3.89235
14.15	3.89366
14.16	3.89037
14.17	3.89202
14.18	3.88675
14.19	3.90024
14.2	3.89827
14.21	3.89531
14.22	3.89991
14.23	3.89695
14.24	3.89991
14.25	3.90485
14.26	3.89925
14.27	3.88149
14.28	3.89235
14.29	3.89695
14.3	3.89235
14.31	3.89958
14.32	3.88083
14.33	3.89136
14.34	3.90386
14.35	3.87557
14.36	3.90156
14.37	3.89695
14.38	3.89531
14.39	3.88938
14.4	3.89235
14.41	3.89136
14.42	3.88708
14.43	3.8805
14.44	3.89827
14.45	3.88116
14.46	3.87228
14.47	3.88116
14.48	3.8657
14.49	3.8907
14.5	3.89761
14.51	3.88642
14.52	3.87031
14.53	3.89004
14.54	3.89695
14.55	3.88774
14.56	3.86702
14.57	3.86537
14.58	3.88116
14.59	3.88313
14.6	3.86899
14.61	3.87096
14.62	3.8759
14.63	3.86866
14.64	3.8759
14.65	3.87458
14.66	3.88182
14.67	3.87327
14.68	3.87228
14.69	3.89564
14.7	3.87458
14.71	3.86636
14.72	3.85813
14.73	3.87096
14.74	3.87952
14.75	3.87458
14.76	3.87524
14.77	3.88215
14.78	3.86669
14.79	3.87031
14.8	3.8634
14.81	3.88215
14.82	3.87919
14.83	3.86767
14.84	3.86307
14.85	3.8634
14.86	3.87754
14.87	3.86767
14.88	3.87524
14.89	3.87524
14.9	3.87787
14.91	3.8657
14.92	3.85945
14.93	3.87557
14.94	3.87491
14.95	3.88083
14.96	3.89432
14.97	3.87952
14.98	3.89004
14.99	3.87787
15	3.86208
15.01	3.87853
15.02	3.87952
15.03	3.87096
15.04	3.84794
15.05	3.8555
15.06	3.8532
15.07	3.86702
15.08	3.87096
15.09	3.86767
15.1	3.87063
15.11	3.86208
15.12	3.86109
15.13	3.86011
15.14	3.86208
15.15	3.86241
15.16	3.86406
15.17	3.84596
15.18	3.85188
15.19	3.86702
15.2	3.88017
15.21	3.86899
15.22	3.86307
15.23	3.86175
15.24	3.86406
15.25	3.87656
15.26	3.87063
15.27	3.85254
15.28	3.85978
15.29	3.85386
15.3	3.86142
15.31	3.843
15.32	3.85517
15.33	3.868
15.34	3.85155
15.35	3.86142
15.36	3.8555
15.37	3.86077
15.38	3.85813
15.39	3.85123
15.4	3.87754
15.41	3.86175
15.42	3.84432
15.43	3.85517
15.44	3.86899
15.45	3.86636
15.46	3.85616
15.47	3.86241
15.48	3.85879
15.49	3.85353
15.5	3.85945
15.51	3.85024
15.52	3.86241
15.53	3.85846
15.54	3.86406
15.55	3.84859
15.56	3.85254
15.57	3.85188
15.58	3.85879
15.59	3.85452
15.6	3.85484
15.61	3.84037
15.62	3.85057
15.63	3.86373
15.64	3.84859
15.65	3.8578
15.66	3.84662
15.67	3.8578
15.68	3.86471
15.69	3.8555
15.7	3.85452
15.71	3.86702
15.72	3.85287
15.73	3.85484
15.74	3.85155
15.75	3.85221
15.76	3.85123
15.77	3.85287
15.78	3.85188
15.79	3.84991
15.8	3.8407
15.81	3.83642
15.82	3.84695
15.83	3.84827
15.84	3.85024
15.85	3.84234
15.86	3.83609
15.87	3.83017
15.88	3.8384
15.89	3.84958
15.9	3.83741
15.91	3.85024
15.92	3.84827
15.93	3.84103
15.94	3.85649
15.95	3.83905
15.96	3.8407
15.97	3.8578
15.98	3.84432
15.99	3.8509
16	3.83445
16.01	3.84201
16.02	3.84695
16.03	3.843
16.04	3.8555
16.05	3.84596
16.06	3.84761
16.07	3.84629
16.08	3.84234
16.09	3.84662
16.1	3.83741
16.11	3.82787
16.12	3.84859
16.13	3.83905
16.14	3.83642
16.15	3.86241
16.16	3.8384
16.17	3.85254
16.18	3.85057
16.19	3.82294
16.2	3.83215
16.21	3.84465
16.22	3.83544
16.23	3.82754
16.24	3.84399
16.25	3.84596
16.26	3.84399
16.27	3.8259
16.28	3.83017
16.29	3.84136
16.3	3.84662
16.31	3.84925
16.32	3.84136
16.33	3.83807
16.34	3.83741
16.35	3.83478
16.36	3.83116
16.37	3.84859
16.38	3.84925
16.39	3.83346
16.4	3.83774
16.41	3.85024
16.42	3.82984
16.43	3.82557
16.44	3.82491
16.45	3.84366
16.46	3.85978
16.47	3.85188
16.48	3.82655
16.49	3.84728
16.5	3.82787
16.51	3.83346
16.52	3.83379
16.53	3.83083
16.54	3.84103
16.55	3.8384
16.56	3.84333
16.57	3.83182
16.58	3.82951
16.59	3.84563
16.6	3.83675
16.61	3.83445
16.62	3.84432
16.63	3.84004
16.64	3.84695
16.65	3.83544
16.66	3.83445
16.67	3.8282
16.68	3.8407
16.69	3.83313
16.7	3.82886
16.71	3.82261
16.72	3.82721
16.73	3.81241
16.74	3.83083
16.75	3.843
16.76	3.84201
16.77	3.82754
16.78	3.84267
16.79	3.82524
16.8	3.82129
16.81	3.82195
16.82	3.81734
16.83	3.8259
16.84	3.83182
16.85	3.8282
16.86	3.83938
16.87	3.84136
16.88	3.83412
16.89	3.83346
16.9	3.83905
16.91	3.82787
16.92	3.82491
16.93	3.83083
16.94	3.83149
16.95	3.85024
16.96	3.81537
16.97	3.82359
16.98	3.8203
16.99	3.83642
17	3.83149
17.01	3.82458
17.02	3.81438
17.03	3.82491
17.04	3.81767
17.05	3.81866
17.06	3.83116
17.07	3.82557
17.08	3.8407
17.09	3.82886
17.1	3.82162
17.11	3.8203
17.12	3.83149
17.13	3.8328
17.14	3.8203
17.15	3.83182
17.16	3.81471
17.17	3.818
17.18	3.81076
17.19	3.81734
17.2	3.81438
17.21	3.82886
17.22	3.82195
17.23	3.81767
17.24	3.82655
17.25	3.81307
17.26	3.8134
17.27	3.82096
17.28	3.82162
17.29	3.81899
17.3	3.81701
17.31	3.83478
17.32	3.818
17.33	3.82096
17.34	3.82754
17.35	3.81767
17.36	3.79563
17.37	3.82951
17.38	3.82919
17.39	3.82984
17.4	3.82491
17.41	3.81044
17.42	3.82688
17.43	3.81701
17.44	3.82623
17.45	3.8134
17.46	3.82359
17.47	3.84267
17.48	3.82326
17.49	3.8078
17.5	3.83445
17.51	3.82754
17.52	3.8134
17.53	3.82491
17.54	3.83412
17.55	3.83346
17.56	3.82129
17.57	3.81142
17.58	3.82392
17.59	3.83576
17.6	3.82688
17.61	3.80813
17.62	3.80879
17.63	3.81734
17.64	3.82261
17.65	3.82261
17.66	3.80846
17.67	3.82787
17.68	3.81965
17.69	3.84169
17.7	3.84399
17.71	3.81603
17.72	3.81965
17.73	3.80221
17.74	3.81899
17.75	3.82326
17.76	3.81372
17.77	3.81734
17.78	3.81175
17.79	3.82491
17.8	3.81669
17.81	3.80418
17.82	3.81175
17.83	3.81833
17.84	3.8203
17.85	3.81241
17.86	3.82326
17.87	3.81603
17.88	3.80418
17.89	3.81965
17.9	3.80057
17.91	3.79925
17.92	3.80386
17.93	3.81701
17.94	3.81076
17.95	3.80188
17.96	3.8157
17.97	3.81405
17.98	3.80122
17.99	3.80649
18	3.80813
18.01	3.81307
18.02	3.8055
18.03	3.81471
18.04	3.81471
18.05	3.81372
18.06	3.81504
18.07	3.81274
18.08	3.82524
18.09	3.8078
18.1	3.79761
18.11	3.81767
18.12	3.81866
18.13	3.80386
18.14	3.80254
18.15	3.80221
18.16	3.81175
18.17	3.81997
18.18	3.82886
18.19	3.79892
18.2	3.81537
18.21	3.8157
18.22	3.80254
18.23	3.81866
18.24	3.81701
18.25	3.81471
18.26	3.81537
18.27	3.82195
18.28	3.81669
18.29	3.81438
18.3	3.80649
18.31	3.81044
18.32	3.79793
18.33	3.8032
18.34	3.81866
18.35	3.82557
18.36	3.81669
18.37	3.79103
18.38	3.7907
18.39	3.81307
18.4	3.80418
18.41	3.80484
18.42	3.80978
18.43	3.79695
18.44	3.80484
18.45	3.81208
18.46	3.81537
18.47	3.818
18.48	3.8078
18.49	3.81011
18.5	3.78675
18.51	3.79991
18.52	3.81899
18.53	3.82655
18.54	3.79465
18.55	3.80155
18.56	3.80649
18.57	3.79695
18.58	3.79629
18.59	3.8032
18.6	3.8282
18.61	3.82524
18.62	3.80616
18.63	3.78872
18.64	3.79465
18.65	3.80649
18.66	3.8032
18.67	3.81109
18.68	3.81044
18.69	3.80715
18.7	3.81701
18.71	3.82096
18.72	3.79596
18.73	3.80616
18.74	3.80616
18.75	3.80682
18.76	3.80024
18.77	3.81537
18.78	3.81208
18.79	3.81208
18.8	3.80747
18.81	3.8259
18.82	3.81241
18.83	3.79366
18.84	3.79991
18.85	3.80122
18.86	3.81504
18.87	3.80418
18.88	3.80747
18.89	3.8203
18.9	3.82096
18.91	3.80912
18.92	3.80616
18.93	3.79563
18.94	3.78905
18.95	3.79168
18.96	3.7907
18.97	3.80057
18.98	3.8157
18.99	3.80583
19	3.80484
19.01	3.79596
19.02	3.79596
19.03	3.79991
19.04	3.79695
19.05	3.7953
19.06	3.79695
19.07	3.78576
19.08	3.79004
19.09	3.80418
19.1	3.79695
19.11	3.78708
19.12	3.78905
19.13	3.79728
19.14	3.80616
19.15	3.80879
19.16	3.80682
19.17	3.79366
19.18	3.79761
19.19	3.78214
19.2	3.79859
19.21	3.79793
19.22	3.80451
19.23	3.79399
19.24	3.77458
19.25	3.79201
19.26	3.79333
19.27	3.81471
19.28	3.78807
19.29	3.7828
19.3	3.78182
19.31	3.79892
19.32	3.79004
19.33	3.79201
19.34	3.79136
19.35	3.79892
19.36	3.80221
19.37	3.80517
19.38	3.78872
19.39	3.81044
19.4	3.79991
19.41	3.80418
19.42	3.77721
19.43	3.79629
19.44	3.76997
19.45	3.79629
19.46	3.81471
19.47	3.79892
19.48	3.7953
19.49	3.77886
19.5	3.78543
19.51	3.79037
19.52	3.79432
19.53	3.79859
19.54	3.81208
19.55	3.79333
19.56	3.78116
19.57	3.77886
19.58	3.78445
19.59	3.78642
19.6	3.79004
19.61	3.81537
19.62	3.78839
19.63	3.78971
19.64	3.79793
19.65	3.80254
19.66	3.79234
19.67	3.78642
19.68	3.79234
19.69	3.77721
19.7	3.77326
19.71	3.79465
19.72	3.80057
19.73	3.78807
19.74	3.77557
19.75	3.77918
19.76	3.8078
19.77	3.79793
19.78	3.78675
19.79	3.80418
19.8	3.79596
19.81	3.78642
19.82	3.79958
19.83	3.80057
19.84	3.78478
19.85	3.76964
19.86	3.78445
19.87	3.79333
19.88	3.80418
19.89	3.79267
19.9	3.78675
19.91	3.78576
19.92	3.78346
19.93	3.78807
19.94	3.77622
19.95	3.78247
19.96	3.79399
19.97	3.79859
19.98	3.78872
19.99	3.79563
20	3.79103
20.01	3.793
20.02	3.80846
20.03	3.80517
20.04	3.79004
20.05	3.78872
20.06	3.77622
20.07	3.80188
20.08	3.78511
20.09	3.77918
20.1	3.80386
20.11	3.80155
20.12	3.78971
20.13	3.7907
20.14	3.79859
20.15	3.8078
20.16	3.79859
20.17	3.80057
20.18	3.79629
20.19	3.80517
20.2	3.8032
20.21	3.80057
20.22	3.79695
20.23	3.80057
20.24	3.79892
20.25	3.79465
20.26	3.80484
20.27	3.79793
20.28	3.80155
20.29	3.80813
20.3	3.80517
20.31	3.79366
20.32	3.78247
20.33	3.78708
20.34	3.78905
20.35	3.78511
20.36	3.78149
20.37	3.79761
20.38	3.78774
20.39	3.7805
20.4	3.77721
20.41	3.79366
20.42	3.79004
20.43	3.79695
20.44	3.77688
20.45	3.793
20.46	3.78576
20.47	3.79629
20.48	3.80386
20.49	3.79859
20.5	3.7828
20.51	3.76668
20.52	3.79859
20.53	3.80221
20.54	3.80353
20.55	3.79103
20.56	3.7726
20.57	3.77918
20.58	3.77359
20.59	3.79037
20.6	3.76767
20.61	3.77425
20.62	3.77721
20.63	3.78346
20.64	3.80188
20.65	3.78346
20.66	3.78741
20.67	3.77886
20.68	3.77984
20.69	3.77886
20.7	3.78247
20.71	3.78017
20.72	3.7782
20.73	3.77721
20.74	3.7726
20.75	3.79201
20.76	3.7907
20.77	3.79432
20.78	3.78543
20.79	3.78839
20.8	3.77951
20.81	3.78741
20.82	3.77918
20.83	3.77655
20.84	3.79793
20.85	3.78609
20.86	3.78346
20.87	3.78675
20.88	3.78576
20.89	3.78741
20.9	3.77853
20.91	3.78807
20.92	3.76471
20.93	3.76142
20.94	3.76767
20.95	3.77918
20.96	3.78609
20.97	3.78017
20.98	3.77754
20.99	3.77754
21	3.76734
21.01	3.77557
21.02	3.78807
21.03	3.7703
21.04	3.76767
21.05	3.76635
21.06	3.77655
21.07	3.77984
21.08	3.76964
21.09	3.79037
21.1	3.78774
21.11	3.7828
21.12	3.78379
21.13	3.76307
21.14	3.76405
21.15	3.77886
21.16	3.77293
21.17	3.76964
21.18	3.76997
21.19	3.77425
21.2	3.79234
21.21	3.793
21.22	3.77359
21.23	3.78313
21.24	3.78149
21.25	3.77228
21.26	3.76043
21.27	3.78741
21.28	3.78214
21.29	3.78116
21.3	3.78445
21.31	3.77063
21.32	3.78478
21.33	3.78905
21.34	3.78379
21.35	3.78445
21.36	3.78807
21.37	3.78017
21.38	3.77491
21.39	3.77425
21.4	3.78247
21.41	3.77918
21.42	3.78642
21.43	3.79596
21.44	3.78478
21.45	3.78412
21.46	3.79399
21.47	3.77359
21.48	3.79958
21.49	3.7782
21.5	3.75714
21.51	3.79037
21.52	3.79103
21.53	3.77491
21.54	3.793
21.55	3.75945
21.56	3.77129
21.57	3.7578
21.58	3.78017
21.59	3.76175
21.6	3.76668
21.61	3.7782
21.62	3.77491
21.63	3.79234
21.64	3.77951
21.65	3.7703
21.66	3.76142
21.67	3.77951
21.68	3.77096
21.69	3.76866
21.7	3.78116
21.71	3.78872
21.72	3.77195
21.73	3.78149
21.74	3.78379
21.75	3.78083
21.76	3.7578
21.77	3.76537
21.78	3.76701
21.79	3.77622
21.8	3.77458
21.81	3.77754
21.82	3.78017
21.83	3.76504
21.84	3.77655
21.85	3.76438
21.86	3.76537
21.87	3.76537
21.88	3.77853
21.89	3.78642
21.9	3.77063
21.91	3.77491
21.92	3.77425
21.93	3.78247
21.94	3.7657
21.95	3.77491
21.96	3.78149
21.97	3.77557
21.98	3.7805
21.99	3.78379
22	3.77557
22.01	3.78313
22.02	3.76142
22.03	3.768
22.04	3.77491
22.05	3.78445
22.06	3.77984
22.07	3.76109
22.08	3.76274
22.09	3.77425
22.1	3.76767
22.11	3.78839
22.12	3.76208
22.13	3.76537
22.14	3.76405
22.15	3.75484
22.16	3.77458
22.17	3.77886
22.18	3.77228
22.19	3.77557
22.2	3.78083
22.21	3.77918
22.22	3.77162
22.23	3.75846
22.24	3.78017
22.25	3.77787
22.26	3.76932
22.27	3.78182
22.28	3.77096
22.29	3.76997
22.3	3.768
22.31	3.76932
22.32	3.77326
22.33	3.78149
22.34	3.76635
22.35	3.75517
22.36	3.7726
22.37	3.76339
22.38	3.78149
22.39	3.7828
22.4	3.77886
22.41	3.77951
22.42	3.77425
22.43	3.76899
22.44	3.77655
22.45	3.76603
22.46	3.77063
22.47	3.7703
22.48	3.77491
22.49	3.77359
22.5	3.7726
22.51	3.77458
22.52	3.76307
22.53	3.77162
22.54	3.75418
22.55	3.76339
22.56	3.75616
22.57	3.7578
22.58	3.76307
22.59	3.75879
22.6	3.77195
22.61	3.76767
22.62	3.76208
22.63	3.77622
22.64	3.78708
22.65	3.78675
22.66	3.78149
22.67	3.77754
22.68	3.78182
22.69	3.7555
22.7	3.74892
22.71	3.77096
22.72	3.77228
22.73	3.75649
22.74	3.77392
22.75	3.768
22.76	3.75385
22.77	3.768
22.78	3.79136
22.79	3.77326
22.8	3.77425
22.81	3.77096
22.82	3.76274
22.83	3.77951
22.84	3.768
22.85	3.76405
22.86	3.77195
22.87	3.76043
22.88	3.76076
22.89	3.75418
22.9	3.76043
22.91	3.75056
22.92	3.77688
22.93	3.77096
22.94	3.77063
22.95	3.76274
22.96	3.76537
22.97	3.76504
22.98	3.75681
22.99	3.76701
23	3.77721
23.01	3.76734
23.02	3.75484
23.03	3.75287
23.04	3.74366
23.05	3.77425
23.06	3.77293
23.07	3.77721
23.08	3.75024
23.09	3.76734
23.1	3.76175
23.11	3.76734
23.12	3.7476
23.13	3.75649
23.14	3.7703
23.15	3.76471
23.16	3.76339
23.17	3.76307
23.18	3.76274
23.19	3.75517
23.2	3.75517
23.21	3.76701
23.22	3.78511
23.23	3.76471
23.24	3.77688
23.25	3.76701
23.26	3.76208
23.27	3.75418
23.28	3.74234
23.29	3.76734
23.3	3.76668
23.31	3.78576
23.32	3.77787
23.33	3.76438
23.34	3.7657
23.35	3.75353
23.36	3.76307
23.37	3.75583
23.38	3.76307
23.39	3.75024
23.4	3.75155
23.41	3.76899
23.42	3.76142
23.43	3.77425
23.44	3.77655
23.45	3.75122
23.46	3.76603
23.47	3.75451
23.48	3.7532
23.49	3.76076
23.5	3.77688
23.51	3.76076
23.52	3.76635
23.53	3.76405
23.54	3.75254
23.55	3.76175
23.56	3.77557
23.57	3.76241
23.58	3.75155
23.59	3.75089
23.6	3.74695
23.61	3.7555
23.62	3.75188
23.63	3.74958
23.64	3.74826
23.65	3.78149
23.66	3.76668
23.67	3.76109
23.68	3.75484
23.69	3.75879
23.7	3.76208
23.71	3.76372
23.72	3.77096
23.73	3.76438
23.74	3.77326
23.75	3.74201
23.76	3.76471
23.77	3.75681
23.78	3.7578
23.79	3.77458
23.8	3.75451
23.81	3.75287
23.82	3.75056
23.83	3.75846
23.84	3.74596
23.85	3.76241
23.86	3.76142
23.87	3.74991
23.88	3.768
23.89	3.76964
23.9	3.77918
23.91	3.77853
23.92	3.77096
23.93	3.76997
23.94	3.77688
23.95	3.76734
23.96	3.76142
23.97	3.78116
23.98	3.76471
23.99	3.75287
24	3.75813
24.01	3.74267
24.02	3.76043
24.03	3.74366
24.04	3.76635
24.05	3.7601
24.06	3.76175
24.07	3.78083
24.08	3.77951
24.09	3.77557
24.1	3.76899
24.11	3.75681
24.12	3.7532
24.13	3.75155
24.14	3.76339
24.15	3.75287
24.16	3.75056
24.17	3.75024
24.18	3.76043
24.19	3.76635
24.2	3.76339
24.21	3.75056
24.22	3.75649
24.23	3.75747
24.24	3.76866
24.25	3.75155
24.26	3.74563
24.27	3.74793
24.28	3.7555
24.29	3.74135
24.3	3.74859
24.31	3.74399
24.32	3.76076
24.33	3.75188
24.34	3.73938
24.35	3.75583
24.36	3.77162
24.37	3.7601
24.38	3.75846
24.39	3.74333
24.4	3.76175
24.41	3.7555
24.42	3.75385
24.43	3.74563
24.44	3.75254
24.45	3.74037
24.46	3.76208
24.47	3.74201
24.48	3.7476
24.49	3.75254
24.5	3.76701
24.51	3.77162
24.52	3.75681
24.53	3.77195
24.54	3.76603
24.55	3.76701
24.56	3.75813
24.57	3.76997
24.58	3.76142
24.59	3.76537
24.6	3.75978
24.61	3.75353
24.62	3.75649
24.63	3.768
24.64	3.76635
24.65	3.76668
24.66	3.77162
24.67	3.76076
24.68	3.75714
24.69	3.75846
24.7	3.73477
24.71	3.74662
24.72	3.75221
24.73	3.76405
24.74	3.76175
24.75	3.75089
24.76	3.76471
24.77	3.76701
24.78	3.76668
24.79	3.75024
24.8	3.75945
24.81	3.74991
24.82	3.75681
24.83	3.73576
24.84	3.75418
24.85	3.75649
24.86	3.75583
24.87	3.76307
24.88	3.7726
24.89	3.75846
24.9	3.74991
24.91	3.75484
24.92	3.75912
24.93	3.7532
24.94	3.7578
24.95	3.76241
24.96	3.75155
24.97	3.75978
24.98	3.77688
24.99	3.75353
25	3.76241
25.01	3.75122
25.02	3.76504
25.03	3.74596
25.04	3.73445
25.05	3.76208
25.06	3.76668
25.07	3.76175
25.08	3.76076
25.09	3.75846
25.1	3.74662
25.11	3.7532
25.12	3.74464
25.13	3.75254
25.14	3.76833
25.15	3.76537
25.16	3.76076
25.17	3.76307
25.18	3.74925
25.19	3.75287
25.2	3.74991
25.21	3.74695
25.22	3.75188
25.23	3.75714
25.24	3.7453
25.25	3.75517
25.26	3.75353
25.27	3.76405
25.28	3.75254
25.29	3.76866
25.3	3.76043
25.31	3.73774
25.32	3.74464
25.33	3.76537
25.34	3.76241
25.35	3.75122
25.36	3.76438
25.37	3.76307
25.38	3.75418
25.39	3.74892
25.4	3.76208
25.41	3.743
25.42	3.74431
25.43	3.74793
25.44	3.74793
25.45	3.75846
25.46	3.76899
25.47	3.75451
25.48	3.73774
25.49	3.73609
25.5	3.76241
25.51	3.76076
25.52	3.75747
25.53	3.72622
25.54	3.74662
25.55	3.74991
25.56	3.76043
25.57	3.76142
25.58	3.75056
25.59	3.75616
25.6	3.75155
25.61	3.75451
25.62	3.75649
25.63	3.74168
25.64	3.75254
25.65	3.74267
25.66	3.74497
25.67	3.76076
25.68	3.74563
25.69	3.73708
25.7	3.74399
25.71	3.76438
25.72	3.75254
25.73	3.74366
25.74	3.76307
25.75	3.75846
25.76	3.75747
25.77	3.75616
25.78	3.75451
25.79	3.75122
25.8	3.76142
25.81	3.75155
25.82	3.75089
25.83	3.75517
25.84	3.75188
25.85	3.75945
25.86	3.74662
25.87	3.76339
25.88	3.76635
25.89	3.75188
25.9	3.73806
25.91	3.74991
25.92	3.75024
25.93	3.75747
25.94	3.75122
25.95	3.7453
25.96	3.75089
25.97	3.74925
25.98	3.73938
25.99	3.7305
26	3.73116
26.01	3.75813
26.02	3.73971
26.03	3.74102
26.04	3.74793
26.05	3.73806
26.06	3.74135
26.07	3.72622
26.08	3.74135
26.09	3.75846
26.1	3.73806
26.11	3.74234
26.12	3.72622
26.13	3.74037
26.14	3.75484
26.15	3.75714
26.16	3.76964
26.17	3.75747
26.18	3.74695
26.19	3.7555
26.2	3.75846
26.21	3.74464
26.22	3.73741
26.23	3.73872
26.24	3.75517
26.25	3.75188
26.26	3.74267
26.27	3.74497
26.28	3.74925
26.29	3.74267
26.3	3.73708
26.31	3.7476
26.32	3.743
26.33	3.76372
26.34	3.75089
26.35	3.74201
26.36	3.73971
26.37	3.74695
26.38	3.75418
26.39	3.74497
26.4	3.75484
26.41	3.74596
26.42	3.74135
26.43	3.74925
26.44	3.76175
26.45	3.74596
26.46	3.74399
26.47	3.74596
26.48	3.75155
26.49	3.73839
26.5	3.7407
26.51	3.75978
26.52	3.76833
26.53	3.76504
26.54	3.75747
26.55	3.75287
26.56	3.76076
26.57	3.75616
26.58	3.75879
26.59	3.743
26.6	3.74629
26.61	3.74431
26.62	3.7453
26.63	3.74201
26.64	3.7476
26.65	3.74102
26.66	3.74793
26.67	3.73806
26.68	3.74925
26.69	3.75846
26.7	3.75221
26.71	3.73872
26.72	3.74695
26.73	3.75188
26.74	3.74201
26.75	3.75747
26.76	3.74102
26.77	3.75287
26.78	3.7351
26.79	3.74168
26.8	3.73116
26.81	3.72359
26.82	3.73477
26.83	3.73938
26.84	3.76603
26.85	3.75024
26.86	3.76339
26.87	3.7532
26.88	3.7407
26.89	3.74596
26.9	3.74629
26.91	3.7453
26.92	3.74596
26.93	3.7555
26.94	3.7453
26.95	3.76537
26.96	3.7657
26.97	3.7555
26.98	3.73609
26.99	3.74366
27	3.74168
27.01	3.74958
27.02	3.74793
27.03	3.74695
27.04	3.7532
27.05	3.74234
27.06	3.73675
27.07	3.72721
27.08	3.72951
27.09	3.7532
27.1	3.75583
27.11	3.76504
27.12	3.76932
27.13	3.75221
27.14	3.75846
27.15	3.7453
27.16	3.75418
27.17	3.75221
27.18	3.74102
27.19	3.74234
27.2	3.74826
27.21	3.75681
27.22	3.74102
27.23	3.75221
27.24	3.75221
27.25	3.75649
27.26	3.75188
27.27	3.75353
27.28	3.75089
27.29	3.73412
27.3	3.73543
27.31	3.75056
27.32	3.7305
27.33	3.74201
27.34	3.74168
27.35	3.743
27.36	3.75056
27.37	3.73247
27.38	3.73313
27.39	3.73741
27.4	3.75089
27.41	3.75418
27.42	3.73543
27.43	3.75747
27.44	3.73806
27.45	3.72918
27.46	3.74399
27.47	3.74399
27.48	3.7476
27.49	3.72589
27.5	3.73905
27.51	3.75287
27.52	3.75254
27.53	3.73806
27.54	3.73346
27.55	3.72951
27.56	3.74168
27.57	3.73872
27.58	3.72523
27.59	3.72622
27.6	3.74728
27.61	3.7476
27.62	3.74793
27.63	3.73675
27.64	3.72951
27.65	3.73313
27.66	3.74662
27.67	3.74037
27.68	3.74728
27.69	3.74925
27.7	3.75254
27.71	3.74037
27.72	3.73346
27.73	3.74563
27.74	3.75056
27.75	3.74497
27.76	3.72787
27.77	3.73609
27.78	3.74333
27.79	3.74958
27.8	3.73905
27.81	3.74102
27.82	3.74662
27.83	3.73806
27.84	3.72491
27.85	3.74267
27.86	3.743
27.87	3.72425
27.88	3.74859
27.89	3.7476
27.9	3.74234
27.91	3.74267
27.92	3.743
27.93	3.743
27.94	3.74234
27.95	3.74366
27.96	3.74267
27.97	3.74004
27.98	3.74399
27.99	3.74826
28	3.73149
28.01	3.7555
28.02	3.73609
28.03	3.72951
28.04	3.73346
28.05	3.73971
28.06	3.74892
28.07	3.7226
28.08	3.74826
28.09	3.74826
28.1	3.75649
28.11	3.74464
28.12	3.73379
28.13	3.75221
28.14	3.75451
28.15	3.73477
28.16	3.7351
28.17	3.72425
28.18	3.7351
28.19	3.72885
28.2	3.73214
28.21	3.72392
28.22	3.7407
28.23	3.7476
28.24	3.73905
28.25	3.72556
28.26	3.74102
28.27	3.73083
28.28	3.73675
28.29	3.74234
28.3	3.74168
28.31	3.75155
28.32	3.73774
28.33	3.76109
28.34	3.74366
28.35	3.73675
28.36	3.743
28.37	3.74201
28.38	3.75024
28.39	3.72852
28.4	3.75188
28.41	3.75122
28.42	3.73839
28.43	3.7532
28.44	3.75287
28.45	3.743
28.46	3.75287
28.47	3.74991
28.48	3.75287
28.49	3.75024
28.5	3.74399
28.51	3.73083
28.52	3.73741
28.53	3.73905
28.54	3.72984
28.55	3.743
28.56	3.74366
28.57	3.72885
28.58	3.72688
28.59	3.74004
28.6	3.72721
28.61	3.73379
28.62	3.73708
28.63	3.73477
28.64	3.74135
28.65	3.74464
28.66	3.73905
28.67	3.73313
28.68	3.73181
28.69	3.72918
28.7	3.73247
28.71	3.73576
28.72	3.73149
28.73	3.73247
28.74	3.74168
28.75	3.75385
28.76	3.73642
28.77	3.74004
28.78	3.76274
28.79	3.74892
28.8	3.73214
28.81	3.72556
28.82	3.72754
28.83	3.73642
28.84	3.73477
28.85	3.74135
28.86	3.74037
28.87	3.73543
28.88	3.7453
28.89	3.72096
28.9	3.72162
28.91	3.72359
28.92	3.73774
28.93	3.73543
28.94	3.74399
28.95	3.72227
28.96	3.74168
28.97	3.7328
28.98	3.71668
28.99	3.73214
29	3.73379
29.01	3.72491
29.02	3.74333
29.03	3.74267
29.04	3.73971
29.05	3.74168
29.06	3.75155
29.07	3.743
29.08	3.73905
29.09	3.73477
29.1	3.74004
29.11	3.73445
29.12	3.73741
29.13	3.72458
29.14	3.72885
29.15	3.74464
29.16	3.75024
29.17	3.73412
29.18	3.72852
29.19	3.74892
29.2	3.73938
29.21	3.74563
29.22	3.7282
29.23	3.72885
29.24	3.75912
29.25	3.73247
29.26	3.73247
29.27	3.73839
29.28	3.75089
29.29	3.7226
29.3	3.72622
29.31	3.73806
29.32	3.74366
29.33	3.73609
29.34	3.74201
29.35	3.72721
29.36	3.72951
29.37	3.73017
29.38	3.74399
29.39	3.73543
29.4	3.73543
29.41	3.71997
29.42	3.72918
29.43	3.73116
29.44	3.72885
29.45	3.7157
29.46	3.73149
29.47	3.73741
29.48	3.73708
29.49	3.75517
29.5	3.7328
29.51	3.7351
29.52	3.74596
29.53	3.72227
29.54	3.74399
29.55	3.74464
29.56	3.73181
29.57	3.73116
29.58	3.72129
29.59	3.73642
29.6	3.73872
29.61	3.74596
29.62	3.7476
29.63	3.73609
29.64	3.72392
29.65	3.72984
29.66	3.7101
29.67	3.73806
29.68	3.74728
29.69	3.71405
29.7	3.71537
29.71	3.73247
29.72	3.72293
29.73	3.73675
29.74	3.7328
29.75	3.72622
29.76	3.73477
29.77	3.73181
29.78	3.74102
29.79	3.72984
29.8	3.72326
29.81	3.73642
29.82	3.72721
29.83	3.72359
29.84	3.71668
29.85	3.72293
29.86	3.71964
29.87	3.718
29.88	3.73346
29.89	3.73379
29.9	3.73346
29.91	3.73938
29.92	3.73971
29.93	3.7328
29.94	3.74135
29.95	3.72491
29.96	3.72425
29.97	3.71339
29.98	3.71668
29.99	3.72721
30	3.7226
