"BIO-KINE ASCII FILE"
"_COMMENT"	"MOS-500 Spectrometer"
"_COMMENT"	"Kinetics measurement"
"_COMMENT"	"Y Unit : Volt,  X Unit : s"
"_COMMENT"	"Excitation wavelength : 380 nm"
"_COMMENT"	"Fentes bandwidth =  1 nm"
"_COMMENT"	"HV= 625V"
"_COMMENT"	"Timebase  1 =  .01 s   3001 pts"
"_SFM"	"SFM-400 /S  Advanced mode"
"_SFM"	"Ratio : S1: 2.5, S2: 0, S3: 0, S4: 1"
"_SFM"	"Content : S1: , S2: , S3: , S4:"
"_SFM"	"Concentration : S1: , S2: , S3: , S4:"
"_SFM"	"Total volume : 209 µl  Flow : 3.5 mL/s"
"_SFM"	"Acquisition start :  10 ms before stop"
"_SFM"	"cuve=FC-15, s1=10 ml , s2=10 ml , s3=10 ml , s4=1.9 ml"
"_UNITX"	"s"
"_UNITY"	"Volt"
"_DELTAX"	0
"_DATA"
1e-300	6.28222
0.01	6.85559
0.02	6.99704
0.03	6.94013
0.04	6.9625
0.05	6.97928
0.06	6.98586
0.07	6.9931
0.08	6.99671
0.09	6.98816
0.1	6.99869
0.11	7.0102
0.12	7.0102
0.13	7.0102
0.14	7.00132
0.15	7.0125
0.16	6.99013
0.17	7.00329
0.18	7.00625
0.19	7.00494
0.2	6.99671
0.21	7.00165
0.22	6.99704
0.23	6.99408
0.24	6.9954
0.25	6.99474
0.26	6.98948
0.27	6.98356
0.28	6.97369
0.29	6.97369
0.3	6.97237
0.31	6.9727
0.32	6.96217
0.33	6.95954
0.34	6.9523
0.35	6.94605
0.36	6.94375
0.37	6.94079
0.38	6.93224
0.39	6.93158
0.4	6.9125
0.41	6.92862
0.42	6.91349
0.43	6.91612
0.44	6.9148
0.45	6.90296
0.46	6.89572
0.47	6.88586
0.48	6.89276
0.49	6.88849
0.5	6.88388
0.51	6.88289
0.52	6.88125
0.53	6.87434
0.54	6.86842
0.55	6.85789
0.56	6.85296
0.57	6.85625
0.58	6.85296
0.59	6.83256
0.6	6.8375
0.61	6.83684
0.62	6.82862
0.63	6.82302
0.64	6.82204
0.65	6.82302
0.66	6.81677
0.67	6.81151
0.68	6.81809
0.69	6.79506
0.7	6.79112
0.71	6.79506
0.72	6.78388
0.73	6.77302
0.74	6.77335
0.75	6.76908
0.76	6.76973
0.77	6.76875
0.78	6.75658
0.79	6.74934
0.8	6.74144
0.81	6.73914
0.82	6.74144
0.83	6.73486
0.84	6.72401
0.85	6.72039
0.86	6.71809
0.87	6.70361
0.88	6.70032
0.89	6.69572
0.9	6.69473
0.91	6.68815
0.92	6.68486
0.93	6.67269
0.94	6.67006
0.95	6.66381
0.96	6.65493
0.97	6.65427
0.98	6.64934
0.99	6.65131
1	6.64078
1.01	6.63387
1.02	6.63026
1.03	6.62368
1.04	6.62072
1.05	6.61052
1.06	6.61118
1.07	6.59901
1.08	6.59111
1.09	6.58815
1.1	6.58256
1.11	6.57466
1.12	6.574
1.13	6.56578
1.14	6.56381
1.15	6.55887
1.16	6.55328
1.17	6.55065
1.18	6.53486
1.19	6.53979
1.2	6.53782
1.21	6.52992
1.22	6.51907
1.23	6.51644
1.24	6.50986
1.25	6.51117
1.26	6.49506
1.27	6.49736
1.28	6.49604
1.29	6.47992
1.3	6.47927
1.31	6.47499
1.32	6.46973
1.33	6.45821
1.34	6.45229
1.35	6.45262
1.36	6.44867
1.37	6.44473
1.38	6.43157
1.39	6.43584
1.4	6.42005
1.41	6.41183
1.42	6.41611
1.43	6.41183
1.44	6.40328
1.45	6.39834
1.46	6.38913
1.47	6.3865
1.48	6.38255
1.49	6.37104
1.5	6.37137
1.51	6.36874
1.52	6.35854
1.53	6.35755
1.54	6.34012
1.55	6.33387
1.56	6.3342
1.57	6.32959
1.58	6.31577
1.59	6.3138
1.6	6.31314
1.61	6.30755
1.62	6.30031
1.63	6.29472
1.64	6.29538
1.65	6.29077
1.66	6.27926
1.67	6.27433
1.68	6.27334
1.69	6.2559
1.7	6.25459
1.71	6.24965
1.72	6.24998
1.73	6.24275
1.74	6.24669
1.75	6.22794
1.76	6.22465
1.77	6.21413
1.78	6.21972
1.79	6.20722
1.8	6.20623
1.81	6.2013
1.82	6.19274
1.83	6.18156
1.84	6.1832
1.85	6.17465
1.86	6.16511
1.87	6.16873
1.88	6.1513
1.89	6.15491
1.9	6.15853
1.91	6.14702
1.92	6.14011
1.93	6.13386
1.94	6.13814
1.95	6.12597
1.96	6.11972
1.97	6.11083
1.98	6.1059
1.99	6.08879
2	6.08978
2.01	6.0934
2.02	6.08419
2.03	6.07399
2.04	6.06577
2.05	6.06511
2.06	6.06215
2.07	6.04833
2.08	6.05195
2.09	6.04373
2.1	6.03846
2.11	6.03715
2.12	6.03057
2.13	6.01807
2.14	6.02202
2.15	6.01741
2.16	6.00886
2.17	5.99767
2.18	5.99866
2.19	5.98945
2.2	5.98254
2.21	5.9753
2.22	5.96971
2.23	5.96675
2.24	5.9582
2.25	5.95886
2.26	5.94932
2.27	5.94965
2.28	5.94307
2.29	5.93484
2.3	5.93517
2.31	5.93649
2.32	5.92267
2.33	5.92136
2.34	5.91807
2.35	5.90622
2.36	5.90557
2.37	5.89668
2.38	5.89241
2.39	5.8901
2.4	5.87596
2.41	5.88484
2.42	5.87958
2.43	5.85951
2.44	5.85754
2.45	5.84964
2.46	5.84537
2.47	5.83846
2.48	5.83385
2.49	5.82793
2.5	5.81609
2.51	5.82596
2.52	5.82069
2.53	5.80622
2.54	5.79471
2.55	5.78879
2.56	5.78385
2.57	5.77925
2.58	5.78352
2.59	5.77464
2.6	5.75885
2.61	5.76082
2.62	5.75523
2.63	5.74438
2.64	5.74832
2.65	5.74635
2.66	5.73648
2.67	5.73385
2.68	5.73155
2.69	5.72628
2.7	5.71477
2.71	5.71378
2.72	5.70293
2.73	5.70194
2.74	5.69372
2.75	5.68944
2.76	5.68549
2.77	5.68187
2.78	5.67562
2.79	5.67365
2.8	5.67102
2.81	5.66082
2.82	5.65424
2.83	5.65194
2.84	5.65753
2.85	5.64503
2.86	5.63483
2.87	5.62562
2.88	5.62661
2.89	5.62102
2.9	5.62529
2.91	5.62332
2.92	5.61181
2.93	5.59108
2.94	5.59766
2.95	5.58779
2.96	5.58648
2.97	5.58516
2.98	5.58121
2.99	5.57694
3	5.56838
3.01	5.55917
3.02	5.5549
3.03	5.54865
3.04	5.5493
3.05	5.54996
3.06	5.53615
3.07	5.52628
3.08	5.53187
3.09	5.522
3.1	5.51476
3.11	5.50983
3.12	5.49799
3.13	5.49667
3.14	5.49865
3.15	5.48713
3.16	5.4868
3.17	5.48746
3.18	5.47529
3.19	5.47825
3.2	5.45917
3.21	5.45785
3.22	5.44799
3.23	5.4493
3.24	5.44634
3.25	5.44338
3.26	5.4391
3.27	5.42759
3.28	5.42989
3.29	5.43121
3.3	5.42331
3.31	5.4118
3.32	5.40522
3.33	5.4118
3.34	5.40193
3.35	5.39272
3.36	5.40062
3.37	5.39239
3.38	5.37956
3.39	5.37265
3.4	5.37265
3.41	5.36937
3.42	5.35226
3.43	5.35094
3.44	5.35292
3.45	5.35917
3.46	5.35061
3.47	5.33811
3.48	5.3289
3.49	5.33614
3.5	5.32759
3.51	5.31805
3.52	5.31114
3.53	5.30917
3.54	5.30061
3.55	5.2993
3.56	5.30259
3.57	5.29601
3.58	5.28778
3.59	5.28384
3.6	5.27726
3.61	5.27923
3.62	5.28022
3.63	5.26936
3.64	5.26278
3.65	5.25818
3.66	5.2493
3.67	5.24732
3.68	5.24436
3.69	5.23844
3.7	5.22989
3.71	5.22824
3.72	5.22726
3.73	5.23219
3.74	5.22824
3.75	5.22035
3.76	5.20818
3.77	5.19929
3.78	5.19633
3.79	5.20423
3.8	5.18975
3.81	5.18482
3.82	5.18318
3.83	5.17495
3.84	5.17396
3.85	5.17396
3.86	5.16541
3.87	5.15982
3.88	5.16278
3.89	5.15094
3.9	5.14666
3.91	5.14041
3.92	5.1414
3.93	5.12956
3.94	5.12265
3.95	5.12232
3.96	5.12561
3.97	5.121
3.98	5.11541
3.99	5.1085
4	5.10423
4.01	5.09666
4.02	5.08876
4.03	5.08811
4.04	5.08646
4.05	5.07626
4.06	5.06541
4.07	5.07034
4.08	5.07067
4.09	5.0608
4.1	5.06179
4.11	5.05982
4.12	5.04732
4.13	5.05225
4.14	5.04896
4.15	5.0358
4.16	5.0358
4.17	5.02889
4.18	5.03087
4.19	5.02232
4.2	5.01738
4.21	5.02001
4.22	5.01179
4.23	5.00883
4.24	5.00587
4.25	5.00192
4.26	4.99304
4.27	4.99041
4.28	4.98514
4.29	4.97856
4.3	4.97231
4.31	4.9733
4.32	4.96639
4.33	4.96146
4.34	4.96639
4.35	4.95751
4.36	4.95488
4.37	4.95389
4.38	4.94929
4.39	4.94304
4.4	4.94501
4.41	4.9381
4.42	4.93218
4.43	4.92396
4.44	4.91968
4.45	4.91442
4.46	4.91869
4.47	4.91672
4.48	4.91211
4.49	4.90257
4.5	4.90126
4.51	4.90159
4.52	4.89271
4.53	4.89303
4.54	4.88975
4.55	4.88021
4.56	4.87297
4.57	4.88053
4.58	4.8756
4.59	4.87067
4.6	4.86573
4.61	4.8608
4.62	4.85817
4.63	4.85356
4.64	4.84994
4.65	4.85488
4.66	4.85685
4.67	4.8483
4.68	4.83909
4.69	4.83909
4.7	4.83316
4.71	4.83547
4.72	4.81968
4.73	4.81968
4.74	4.81606
4.75	4.81178
4.76	4.80915
4.77	4.80586
4.78	4.79665
4.79	4.79665
4.8	4.7927
4.81	4.78711
4.82	4.78777
4.83	4.78711
4.84	4.78316
4.85	4.78152
4.86	4.77395
4.87	4.77099
4.88	4.76869
4.89	4.76672
4.9	4.76441
4.91	4.7506
4.92	4.75421
4.93	4.75191
4.94	4.74895
4.95	4.74007
4.96	4.74237
4.97	4.74139
4.98	4.72856
4.99	4.72461
5	4.72592
5.01	4.72099
5.02	4.7177
5.03	4.71638
5.04	4.71046
5.05	4.71178
5.06	4.7131
5.07	4.70783
5.08	4.69698
5.09	4.69467
5.1	4.69632
5.11	4.69138
5.12	4.68809
5.13	4.69138
5.14	4.67592
5.15	4.6723
5.16	4.67033
5.17	4.67263
5.18	4.67263
5.19	4.65948
5.2	4.66309
5.21	4.65454
5.22	4.65915
5.23	4.65783
5.24	4.65322
5.25	4.65322
5.26	4.64467
5.27	4.64369
5.28	4.64533
5.29	4.63382
5.3	4.62855
5.31	4.62493
5.32	4.61803
5.33	4.62428
5.34	4.61507
5.35	4.61803
5.36	4.61178
5.37	4.61079
5.38	4.60882
5.39	4.60849
5.4	4.60651
5.41	4.5996
5.42	4.59796
5.43	4.59434
5.44	4.59467
5.45	4.59566
5.46	4.58349
5.47	4.58414
5.48	4.57428
5.49	4.57559
5.5	4.57789
5.51	4.5723
5.52	4.57559
5.53	4.56934
5.54	4.56704
5.55	4.56868
5.56	4.56046
5.57	4.55881
5.58	4.55388
5.59	4.55125
5.6	4.54598
5.61	4.54237
5.62	4.54072
5.63	4.54631
5.64	4.5348
5.65	4.52164
5.66	4.5246
5.67	4.5246
5.68	4.52526
5.69	4.52362
5.7	4.51901
5.71	4.52329
5.72	4.51408
5.73	4.51144
5.74	4.51309
5.75	4.50421
5.76	4.49993
5.77	4.50026
5.78	4.5019
5.79	4.49829
5.8	4.4894
5.81	4.48875
5.82	4.47954
5.83	4.47657
5.84	4.47098
5.85	4.47032
5.86	4.47427
5.87	4.47296
5.88	4.46703
5.89	4.46835
5.9	4.46901
5.91	4.46309
5.92	4.4575
5.93	4.4496
5.94	4.45453
5.95	4.45124
5.96	4.44598
5.97	4.44006
5.98	4.44236
5.99	4.43677
6	4.43809
6.01	4.43907
6.02	4.43315
6.03	4.43414
6.04	4.42888
6.05	4.42657
6.06	4.42328
6.07	4.41572
6.08	4.41407
6.09	4.40914
6.1	4.40914
6.11	4.41901
6.12	4.41045
6.13	4.41539
6.14	4.41473
6.15	4.41177
6.16	4.40256
6.17	4.40749
6.18	4.40322
6.19	4.39565
6.2	4.39927
6.21	4.39532
6.22	4.39236
6.23	4.39828
6.24	4.38776
6.25	4.38085
6.26	4.37789
6.27	4.37855
6.28	4.37657
6.29	4.3746
6.3	4.36835
6.31	4.37032
6.32	4.37361
6.33	4.36999
6.34	4.36177
6.35	4.3621
6.36	4.35815
6.37	4.35289
6.38	4.35881
6.39	4.36012
6.4	4.35387
6.41	4.34861
6.42	4.34762
6.43	4.33907
6.44	4.33743
6.45	4.33677
6.46	4.34006
6.47	4.3371
6.48	4.33414
6.49	4.33512
6.5	4.32789
6.51	4.32164
6.52	4.3292
6.53	4.319
6.54	4.31835
6.55	4.30979
6.56	4.31539
6.57	4.3065
6.58	4.30946
6.59	4.30683
6.6	4.30223
6.61	4.30256
6.62	4.30025
6.63	4.29565
6.64	4.2996
6.65	4.30025
6.66	4.29663
6.67	4.30091
6.68	4.29992
6.69	4.29433
6.7	4.28413
6.71	4.28512
6.72	4.28545
6.73	4.27591
6.74	4.27723
6.75	4.2769
6.76	4.27163
6.77	4.27196
6.78	4.27229
6.79	4.26999
6.8	4.26407
6.81	4.25387
6.82	4.2542
6.83	4.25848
6.84	4.26703
6.85	4.25157
6.86	4.25223
6.87	4.25288
6.88	4.24828
6.89	4.24696
6.9	4.24334
6.91	4.24466
6.92	4.24137
6.93	4.23841
6.94	4.23676
6.95	4.23479
6.96	4.23282
6.97	4.23347
6.98	4.23019
6.99	4.2315
7	4.22854
7.01	4.22163
7.02	4.22591
7.03	4.2292
7.04	4.22755
7.05	4.21801
7.06	4.219
7.07	4.21505
7.08	4.21143
7.09	4.20979
7.1	4.20551
7.11	4.20782
7.12	4.20913
7.13	4.20157
7.14	4.20486
7.15	4.20288
7.16	4.19959
7.17	4.194
7.18	4.19334
7.19	4.18841
7.2	4.19532
7.21	4.19828
7.22	4.19433
7.23	4.18808
7.24	4.18545
7.25	4.18249
7.26	4.19005
7.27	4.18347
7.28	4.17821
7.29	4.17525
7.3	4.17657
7.31	4.18117
7.32	4.17722
7.33	4.17657
7.34	4.17328
7.35	4.17229
7.36	4.17558
7.37	4.17492
7.38	4.16604
7.39	4.16604
7.4	4.17097
7.41	4.1611
7.42	4.1611
7.43	4.15354
7.44	4.1588
7.45	4.15091
7.46	4.15716
7.47	4.15124
7.48	4.14597
7.49	4.15025
7.5	4.14827
7.51	4.15058
7.52	4.14466
7.53	4.14466
7.54	4.1486
7.55	4.14334
7.56	4.14235
7.57	4.13972
7.58	4.13545
7.59	4.13742
7.6	4.13314
7.61	4.12031
7.62	4.12952
7.63	4.13314
7.64	4.12755
7.65	4.12591
7.66	4.12492
7.67	4.12656
7.68	4.12821
7.69	4.12426
7.7	4.11702
7.71	4.11505
7.72	4.11735
7.73	4.11669
7.74	4.11406
7.75	4.11669
7.76	4.11077
7.77	4.11044
7.78	4.11341
7.79	4.10387
7.8	4.10518
7.81	4.10814
7.82	4.10321
7.83	4.10189
7.84	4.10189
7.85	4.09762
7.86	4.10025
7.87	4.09794
7.88	4.0963
7.89	4.08808
7.9	4.08643
7.91	4.08479
7.92	4.08775
7.93	4.08808
7.94	4.09169
7.95	4.08281
7.96	4.07689
7.97	4.07294
7.98	4.07854
7.99	4.08808
8	4.07459
8.01	4.06505
8.02	4.07558
8.03	4.08183
8.04	4.07623
8.05	4.07196
8.06	4.06867
8.07	4.06735
8.08	4.06242
8.09	4.06505
8.1	4.069
8.11	4.07163
8.12	4.06571
8.13	4.05584
8.14	4.06044
8.15	4.05913
8.16	4.06209
8.17	4.05584
8.18	4.05189
8.19	4.06307
8.2	4.0634
8.21	4.0565
8.22	4.05551
8.23	4.04992
8.24	4.0486
8.25	4.04794
8.26	4.04926
8.27	4.04761
8.28	4.04893
8.29	4.04597
8.3	4.03939
8.31	4.0384
8.32	4.04071
8.33	4.04597
8.34	4.03643
8.35	4.03742
8.36	4.0384
8.37	4.03742
8.38	4.03446
8.39	4.03149
8.4	4.03643
8.41	4.03478
8.42	4.0338
8.43	4.03413
8.44	4.03314
8.45	4.03544
8.46	4.03446
8.47	4.03182
8.48	4.03281
8.49	4.02821
8.5	4.02228
8.51	4.0236
8.52	4.02327
8.53	4.0259
8.54	4.02195
8.55	4.01669
8.56	4.01538
8.57	4.02261
8.58	4.01867
8.59	4.01801
8.6	4.01834
8.61	4.01768
8.62	4.01307
8.63	4.01077
8.64	4.01538
8.65	4.01801
8.66	4.00945
8.67	4.00682
8.68	4.00913
8.69	4.01538
8.7	4.00419
8.71	4.00649
8.72	4.00353
8.73	3.99991
8.74	4.00222
8.75	4.00419
8.76	4.00123
8.77	3.99991
8.78	3.99827
8.79	3.99531
8.8	3.99169
8.81	3.99597
8.82	3.99334
8.83	3.98906
8.84	3.9907
8.85	3.99005
8.86	3.98676
8.87	3.98412
8.88	3.98643
8.89	3.99334
8.9	3.97919
8.91	3.97853
8.92	3.97853
8.93	3.98445
8.94	3.98281
8.95	3.98248
8.96	3.98314
8.97	3.98215
8.98	3.98051
8.99	3.97787
9	3.97195
9.01	3.97787
9.02	3.97722
9.03	3.97886
9.04	3.9782
9.05	3.97491
9.06	3.97064
9.07	3.96702
9.08	3.97557
9.09	3.97064
9.1	3.97491
9.11	3.96768
9.12	3.96636
9.13	3.96702
9.14	3.96472
9.15	3.95945
9.16	3.95748
9.17	3.95649
9.18	3.96373
9.19	3.96143
9.2	3.95386
9.21	3.95386
9.22	3.95781
9.23	3.95024
9.24	3.96241
9.25	3.95912
9.26	3.95518
9.27	3.95452
9.28	3.95222
9.29	3.95518
9.3	3.9532
9.31	3.94366
9.32	3.94958
9.33	3.95518
9.34	3.95353
9.35	3.94958
9.36	3.94531
9.37	3.94662
9.38	3.94465
9.39	3.94333
9.4	3.94333
9.41	3.94794
9.42	3.94629
9.43	3.94498
9.44	3.95024
9.45	3.95353
9.46	3.94498
9.47	3.94235
9.48	3.94399
9.49	3.94004
9.5	3.94202
9.51	3.93741
9.52	3.93675
9.53	3.93379
9.54	3.93577
9.55	3.93873
9.56	3.93083
9.57	3.93379
9.58	3.94004
9.59	3.93248
9.6	3.92787
9.61	3.93149
9.62	3.92656
9.63	3.9282
9.64	3.93116
9.65	3.93478
9.66	3.92294
9.67	3.92064
9.68	3.92491
9.69	3.92228
9.7	3.92031
9.71	3.92853
9.72	3.92623
9.73	3.91998
9.74	3.92195
9.75	3.91011
9.76	3.92064
9.77	3.91735
9.78	3.91735
9.79	3.92787
9.8	3.91932
9.81	3.91636
9.82	3.92162
9.83	3.92228
9.84	3.91241
9.85	3.91439
9.86	3.9157
9.87	3.91307
9.88	3.91044
9.89	3.90583
9.9	3.91175
9.91	3.90419
9.92	3.90123
9.93	3.90978
9.94	3.91143
9.95	3.90879
9.96	3.90879
9.97	3.90583
9.98	3.91537
9.99	3.90846
10	3.90353
10.01	3.90254
10.02	3.90419
10.03	3.89991
10.04	3.91011
10.05	3.89596
10.06	3.89958
10.07	3.89991
10.08	3.89202
10.09	3.89728
10.1	3.90221
10.11	3.89728
10.12	3.89991
10.13	3.89991
10.14	3.89596
10.15	3.89498
10.16	3.89103
10.17	3.89366
10.18	3.8884
10.19	3.89794
10.2	3.89728
10.21	3.893
10.22	3.89564
10.23	3.89761
10.24	3.8986
10.25	3.89169
10.26	3.88807
10.27	3.89169
10.28	3.88577
10.29	3.88741
10.3	3.89202
10.31	3.89267
10.32	3.88675
10.33	3.89531
10.34	3.89498
10.35	3.88906
10.36	3.89169
10.37	3.88741
10.38	3.893
10.39	3.88873
10.4	3.88938
10.41	3.88281
10.42	3.88313
10.43	3.87985
10.44	3.88544
10.45	3.89267
10.46	3.88938
10.47	3.8861
10.48	3.88906
10.49	3.87721
10.5	3.88577
10.51	3.87853
10.52	3.87688
10.53	3.8805
10.54	3.87952
10.55	3.87754
10.56	3.87425
10.57	3.87524
10.58	3.87787
10.59	3.87656
10.6	3.87754
10.61	3.87294
10.62	3.87129
10.63	3.87458
10.64	3.87096
10.65	3.8759
10.66	3.87985
10.67	3.87195
10.68	3.87458
10.69	3.86504
10.7	3.86438
10.71	3.86636
10.72	3.86537
10.73	3.86866
10.74	3.87754
10.75	3.87327
10.76	3.88116
10.77	3.87162
10.78	3.86767
10.79	3.86702
10.8	3.87129
10.81	3.87392
10.82	3.87096
10.83	3.86833
10.84	3.86833
10.85	3.86438
10.86	3.87261
10.87	3.86998
10.88	3.87195
10.89	3.86307
10.9	3.86471
10.91	3.86932
10.92	3.86438
10.93	3.8657
10.94	3.86274
10.95	3.86866
10.96	3.86077
10.97	3.86044
10.98	3.86603
10.99	3.86767
11	3.86373
11.01	3.86471
11.02	3.85945
11.03	3.85879
11.04	3.85879
11.05	3.85813
11.06	3.85715
11.07	3.85748
11.08	3.8634
11.09	3.86241
11.1	3.86406
11.11	3.86438
11.12	3.85945
11.13	3.86044
11.14	3.85583
11.15	3.85813
11.16	3.85978
11.17	3.8532
11.18	3.84925
11.19	3.85287
11.2	3.84925
11.21	3.84234
11.22	3.85649
11.23	3.85386
11.24	3.85057
11.25	3.85155
11.26	3.84399
11.27	3.84827
11.28	3.84827
11.29	3.84695
11.3	3.84991
11.31	3.84991
11.32	3.84629
11.33	3.84169
11.34	3.84136
11.35	3.84333
11.36	3.84892
11.37	3.84103
11.38	3.83971
11.39	3.83774
11.4	3.84037
11.41	3.83741
11.42	3.83807
11.43	3.84333
11.44	3.83642
11.45	3.84103
11.46	3.83708
11.47	3.83609
11.48	3.83445
11.49	3.83774
11.5	3.84432
11.51	3.83642
11.52	3.83708
11.53	3.83971
11.54	3.83576
11.55	3.83675
11.56	3.83313
11.57	3.83445
11.58	3.83149
11.59	3.8328
11.6	3.8282
11.61	3.82853
11.62	3.82326
11.63	3.83576
11.64	3.8305
11.65	3.82623
11.66	3.83116
11.67	3.83609
11.68	3.82886
11.69	3.82787
11.7	3.8282
11.71	3.82392
11.72	3.83478
11.73	3.83379
11.74	3.8282
11.75	3.83116
11.76	3.83215
11.77	3.83017
11.78	3.82919
11.79	3.82359
11.8	3.82458
11.81	3.82754
11.82	3.81965
11.83	3.82524
11.84	3.82919
11.85	3.83248
11.86	3.82787
11.87	3.83017
11.88	3.8305
11.89	3.82688
11.9	3.82853
11.91	3.83412
11.92	3.83083
11.93	3.82655
11.94	3.82129
11.95	3.82261
11.96	3.82261
11.97	3.81997
11.98	3.82261
11.99	3.82425
12	3.82557
12.01	3.818
12.02	3.81636
12.03	3.82359
12.04	3.81866
12.05	3.81965
12.06	3.82326
12.07	3.8157
12.08	3.82294
12.09	3.81833
12.1	3.81636
12.11	3.8157
12.12	3.81175
12.13	3.8134
12.14	3.81537
12.15	3.82195
12.16	3.81603
12.17	3.81471
12.18	3.8055
12.19	3.81241
12.2	3.81932
12.21	3.81932
12.22	3.81504
12.23	3.81833
12.24	3.81669
12.25	3.81636
12.26	3.81142
12.27	3.81471
12.28	3.81307
12.29	3.81669
12.3	3.81438
12.31	3.81175
12.32	3.818
12.33	3.81537
12.34	3.81011
12.35	3.81241
12.36	3.81109
12.37	3.81636
12.38	3.81175
12.39	3.80879
12.4	3.81274
12.41	3.81044
12.42	3.81241
12.43	3.81142
12.44	3.81175
12.45	3.8078
12.46	3.80616
12.47	3.80484
12.48	3.81011
12.49	3.80912
12.5	3.80945
12.51	3.8032
12.52	3.80747
12.53	3.80978
12.54	3.80715
12.55	3.81175
12.56	3.81669
12.57	3.8009
12.58	3.79728
12.59	3.80353
12.6	3.8055
12.61	3.80484
12.62	3.80616
12.63	3.80451
12.64	3.80122
12.65	3.80188
12.66	3.80418
12.67	3.8032
12.68	3.8009
12.69	3.81175
12.7	3.80583
12.71	3.80057
12.72	3.80254
12.73	3.79695
12.74	3.79728
12.75	3.79695
12.76	3.80451
12.77	3.8009
12.78	3.80715
12.79	3.793
12.8	3.79859
12.81	3.79859
12.82	3.80188
12.83	3.8032
12.84	3.80221
12.85	3.80221
12.86	3.79892
12.87	3.79859
12.88	3.79958
12.89	3.8009
12.9	3.79991
12.91	3.80122
12.92	3.80517
12.93	3.80386
12.94	3.80122
12.95	3.80353
12.96	3.79859
12.97	3.8009
12.98	3.8032
12.99	3.80583
13	3.79892
13.01	3.80155
13.02	3.79991
13.03	3.8009
13.04	3.8078
13.05	3.80813
13.06	3.8055
13.07	3.79958
13.08	3.80122
13.09	3.79596
13.1	3.80057
13.11	3.79958
13.12	3.79728
13.13	3.79399
13.14	3.79596
13.15	3.79497
13.16	3.793
13.17	3.78872
13.18	3.79662
13.19	3.79201
13.2	3.7907
13.21	3.78839
13.22	3.79234
13.23	3.78839
13.24	3.79168
13.25	3.78807
13.26	3.78346
13.27	3.78313
13.28	3.78905
13.29	3.79399
13.3	3.78708
13.31	3.78675
13.32	3.78839
13.33	3.78445
13.34	3.78609
13.35	3.78708
13.36	3.79168
13.37	3.78609
13.38	3.78774
13.39	3.78182
13.4	3.7782
13.41	3.78971
13.42	3.78642
13.43	3.78971
13.44	3.78774
13.45	3.78609
13.46	3.78412
13.47	3.78379
13.48	3.78543
13.49	3.78445
13.5	3.78412
13.51	3.78511
13.52	3.78412
13.53	3.7907
13.54	3.79465
13.55	3.78247
13.56	3.78083
13.57	3.78872
13.58	3.78083
13.59	3.78149
13.6	3.78247
13.61	3.78478
13.62	3.77129
13.63	3.77557
13.64	3.77886
13.65	3.77787
13.66	3.78313
13.67	3.78182
13.68	3.78511
13.69	3.78083
13.7	3.78182
13.71	3.78247
13.72	3.78214
13.73	3.78379
13.74	3.77458
13.75	3.77688
13.76	3.77655
13.77	3.77458
13.78	3.78149
13.79	3.78149
13.8	3.77721
13.81	3.78182
13.82	3.78083
13.83	3.77622
13.84	3.77589
13.85	3.77984
13.86	3.78116
13.87	3.78379
13.88	3.77918
13.89	3.77951
13.9	3.77853
13.91	3.77622
13.92	3.77392
13.93	3.77425
13.94	3.77655
13.95	3.78149
13.96	3.78247
13.97	3.78116
13.98	3.78313
13.99	3.78149
14	3.78116
14.01	3.77228
14.02	3.77557
14.03	3.77655
14.04	3.77787
14.05	3.77886
14.06	3.78379
14.07	3.78247
14.08	3.77886
14.09	3.77392
14.1	3.77524
14.11	3.77787
14.12	3.77787
14.13	3.77721
14.14	3.78445
14.15	3.77524
14.16	3.78017
14.17	3.77392
14.18	3.77458
14.19	3.77918
14.2	3.77491
14.21	3.78083
14.22	3.76701
14.23	3.76964
14.24	3.77359
14.25	3.77984
14.26	3.77326
14.27	3.77721
14.28	3.77754
14.29	3.7703
14.3	3.77491
14.31	3.77392
14.32	3.77129
14.33	3.768
14.34	3.76833
14.35	3.77491
14.36	3.77557
14.37	3.77162
14.38	3.77721
14.39	3.77129
14.4	3.768
14.41	3.768
14.42	3.77326
14.43	3.77129
14.44	3.76866
14.45	3.76932
14.46	3.77228
14.47	3.77721
14.48	3.7726
14.49	3.76964
14.5	3.76405
14.51	3.76833
14.52	3.768
14.53	3.76274
14.54	3.76307
14.55	3.77425
14.56	3.77491
14.57	3.7703
14.58	3.76997
14.59	3.768
14.6	3.77063
14.61	3.76208
14.62	3.76537
14.63	3.76734
14.64	3.77129
14.65	3.76471
14.66	3.76537
14.67	3.7703
14.68	3.76899
14.69	3.76734
14.7	3.76603
14.71	3.77195
14.72	3.76701
14.73	3.76668
14.74	3.76932
14.75	3.76438
14.76	3.7601
14.77	3.76339
14.78	3.76833
14.79	3.76438
14.8	3.75879
14.81	3.76734
14.82	3.76668
14.83	3.75945
14.84	3.7657
14.85	3.76734
14.86	3.76701
14.87	3.76241
14.88	3.7657
14.89	3.76964
14.9	3.76076
14.91	3.76405
14.92	3.76734
14.93	3.76241
14.94	3.76307
14.95	3.76175
14.96	3.76142
14.97	3.75912
14.98	3.7601
14.99	3.75846
15	3.75747
15.01	3.76471
15.02	3.76964
15.03	3.76668
15.04	3.76241
15.05	3.76175
15.06	3.76504
15.07	3.75846
15.08	3.75846
15.09	3.7601
15.1	3.7578
15.11	3.75879
15.12	3.76175
15.13	3.76241
15.14	3.76405
15.15	3.75846
15.16	3.76241
15.17	3.75879
15.18	3.76175
15.19	3.75912
15.2	3.76438
15.21	3.7555
15.22	3.75747
15.23	3.75912
15.24	3.75451
15.25	3.7578
15.26	3.75813
15.27	3.75616
15.28	3.75451
15.29	3.75583
15.3	3.76043
15.31	3.75451
15.32	3.75353
15.33	3.75583
15.34	3.75517
15.35	3.75221
15.36	3.75583
15.37	3.75583
15.38	3.75912
15.39	3.74958
15.4	3.75353
15.41	3.75583
15.42	3.74859
15.43	3.75287
15.44	3.75385
15.45	3.74892
15.46	3.7555
15.47	3.74925
15.48	3.75254
15.49	3.74892
15.5	3.75287
15.51	3.75385
15.52	3.74892
15.53	3.75484
15.54	3.75747
15.55	3.75978
15.56	3.76043
15.57	3.76274
15.58	3.75287
15.59	3.75714
15.6	3.75681
15.61	3.75385
15.62	3.74991
15.63	3.75287
15.64	3.75353
15.65	3.75188
15.66	3.75681
15.67	3.75912
15.68	3.75583
15.69	3.75221
15.7	3.75089
15.71	3.75353
15.72	3.7555
15.73	3.7578
15.74	3.7555
15.75	3.75385
15.76	3.75517
15.77	3.7532
15.78	3.75484
15.79	3.75747
15.8	3.75056
15.81	3.74399
15.82	3.75616
15.83	3.75681
15.84	3.74958
15.85	3.74958
15.86	3.75254
15.87	3.74859
15.88	3.75649
15.89	3.75155
15.9	3.75089
15.91	3.75747
15.92	3.75056
15.93	3.74925
15.94	3.75089
15.95	3.75451
15.96	3.74695
15.97	3.74892
15.98	3.75122
15.99	3.74596
16	3.7453
16.01	3.74793
16.02	3.75846
16.03	3.75188
16.04	3.7476
16.05	3.74859
16.06	3.75254
16.07	3.74629
16.08	3.74596
16.09	3.75122
16.1	3.75353
16.11	3.75484
16.12	3.75254
16.13	3.74892
16.14	3.74793
16.15	3.75056
16.16	3.75451
16.17	3.74859
16.18	3.74892
16.19	3.7532
16.2	3.75681
16.21	3.7532
16.22	3.7578
16.23	3.75681
16.24	3.75583
16.25	3.7532
16.26	3.75024
16.27	3.75484
16.28	3.7476
16.29	3.74991
16.3	3.74925
16.31	3.74859
16.32	3.75155
16.33	3.74958
16.34	3.74925
16.35	3.75188
16.36	3.7532
16.37	3.75024
16.38	3.75484
16.39	3.7532
16.4	3.74728
16.41	3.74991
16.42	3.75353
16.43	3.75221
16.44	3.7555
16.45	3.75155
16.46	3.74563
16.47	3.75418
16.48	3.74991
16.49	3.7476
16.5	3.74431
16.51	3.7476
16.52	3.75188
16.53	3.75221
16.54	3.75649
16.55	3.75451
16.56	3.75484
16.57	3.75188
16.58	3.75056
16.59	3.74695
16.6	3.75056
16.61	3.7476
16.62	3.74629
16.63	3.74333
16.64	3.74333
16.65	3.74431
16.66	3.74135
16.67	3.73971
16.68	3.73708
16.69	3.73774
16.7	3.73971
16.71	3.74728
16.72	3.74826
16.73	3.74333
16.74	3.73938
16.75	3.73971
16.76	3.74859
16.77	3.74102
16.78	3.74004
16.79	3.73905
16.8	3.73708
16.81	3.7407
16.82	3.74135
16.83	3.7407
16.84	3.74168
16.85	3.74135
16.86	3.74267
16.87	3.74267
16.88	3.73938
16.89	3.73675
16.9	3.74464
16.91	3.73806
16.92	3.73346
16.93	3.74267
16.94	3.74037
16.95	3.73247
16.96	3.74135
16.97	3.73938
16.98	3.73576
16.99	3.73609
17	3.74497
17.01	3.73938
17.02	3.73905
17.03	3.73971
17.04	3.74135
17.05	3.73971
17.06	3.74037
17.07	3.73313
17.08	3.73741
17.09	3.73181
17.1	3.73774
17.11	3.74333
17.12	3.73839
17.13	3.73642
17.14	3.73609
17.15	3.73774
17.16	3.74037
17.17	3.73774
17.18	3.73675
17.19	3.73379
17.2	3.74004
17.21	3.73839
17.22	3.73872
17.23	3.73642
17.24	3.73609
17.25	3.7351
17.26	3.73313
17.27	3.73839
17.28	3.73609
17.29	3.73412
17.3	3.73872
17.31	3.74333
17.32	3.73839
17.33	3.73543
17.34	3.74168
17.35	3.7407
17.36	3.73708
17.37	3.73905
17.38	3.73675
17.39	3.73576
17.4	3.73181
17.41	3.73247
17.42	3.73576
17.43	3.73116
17.44	3.73083
17.45	3.73149
17.46	3.73313
17.47	3.73116
17.48	3.73642
17.49	3.72918
17.5	3.72688
17.51	3.72655
17.52	3.73445
17.53	3.73214
17.54	3.73247
17.55	3.73576
17.56	3.73181
17.57	3.72885
17.58	3.73116
17.59	3.73445
17.6	3.73445
17.61	3.72787
17.62	3.73116
17.63	3.72984
17.64	3.72885
17.65	3.72622
17.66	3.7328
17.67	3.73313
17.68	3.73477
17.69	3.73247
17.7	3.73642
17.71	3.73116
17.72	3.7328
17.73	3.73609
17.74	3.7328
17.75	3.73181
17.76	3.73675
17.77	3.74102
17.78	3.73938
17.79	3.73774
17.8	3.73609
17.81	3.73642
17.82	3.73412
17.83	3.73313
17.84	3.7305
17.85	3.72951
17.86	3.7351
17.87	3.73839
17.88	3.7328
17.89	3.7351
17.9	3.72984
17.91	3.73412
17.92	3.72918
17.93	3.7282
17.94	3.73412
17.95	3.73445
17.96	3.7282
17.97	3.73477
17.98	3.73149
17.99	3.73642
18	3.72918
18.01	3.73083
18.02	3.73412
18.03	3.73083
18.04	3.7328
18.05	3.73083
18.06	3.72491
18.07	3.72754
18.08	3.7351
18.09	3.72951
18.1	3.73214
18.11	3.73083
18.12	3.7282
18.13	3.73181
18.14	3.73543
18.15	3.7328
18.16	3.7351
18.17	3.73083
18.18	3.72852
18.19	3.72688
18.2	3.72425
18.21	3.72523
18.22	3.73576
18.23	3.73379
18.24	3.72622
18.25	3.73083
18.26	3.73181
18.27	3.73181
18.28	3.72688
18.29	3.72326
18.3	3.72885
18.31	3.73181
18.32	3.73445
18.33	3.73346
18.34	3.7305
18.35	3.72556
18.36	3.72984
18.37	3.73412
18.38	3.72787
18.39	3.73116
18.4	3.73149
18.41	3.73017
18.42	3.7305
18.43	3.7282
18.44	3.7305
18.45	3.72951
18.46	3.73083
18.47	3.73675
18.48	3.73149
18.49	3.72622
18.5	3.72655
18.51	3.72589
18.52	3.72885
18.53	3.72951
18.54	3.72688
18.55	3.73083
18.56	3.72688
18.57	3.72458
18.58	3.72852
18.59	3.72688
18.6	3.72787
18.61	3.73116
18.62	3.72195
18.63	3.72425
18.64	3.72984
18.65	3.73149
18.66	3.72556
18.67	3.72852
18.68	3.72918
18.69	3.72951
18.7	3.72622
18.71	3.72359
18.72	3.72425
18.73	3.72721
18.74	3.72458
18.75	3.73116
18.76	3.72523
18.77	3.72984
18.78	3.7282
18.79	3.72392
18.8	3.72556
18.81	3.72984
18.82	3.72129
18.83	3.71833
18.84	3.72227
18.85	3.72096
18.86	3.72589
18.87	3.72326
18.88	3.71668
18.89	3.72096
18.9	3.72589
18.91	3.71997
18.92	3.71668
18.93	3.71931
18.94	3.71898
18.95	3.7157
18.96	3.71997
18.97	3.72556
18.98	3.72885
18.99	3.72523
19	3.72523
19.01	3.72129
19.02	3.71833
19.03	3.73116
19.04	3.72655
19.05	3.71537
19.06	3.71405
19.07	3.71471
19.08	3.72425
19.09	3.71931
19.1	3.72458
19.11	3.72063
19.12	3.72491
19.13	3.72227
19.14	3.71734
19.15	3.718
19.16	3.72063
19.17	3.72655
19.18	3.72096
19.19	3.718
19.2	3.71833
19.21	3.71405
19.22	3.71208
19.23	3.71898
19.24	3.72523
19.25	3.72326
19.26	3.71964
19.27	3.71668
19.28	3.71241
19.29	3.71767
19.3	3.71602
19.31	3.7203
19.32	3.72425
19.33	3.71734
19.34	3.72589
19.35	3.71602
19.36	3.71635
19.37	3.71635
19.38	3.718
19.39	3.71997
19.4	3.71537
19.41	3.71898
19.42	3.71734
19.43	3.73346
19.44	3.72918
19.45	3.72195
19.46	3.72556
19.47	3.72195
19.48	3.71701
19.49	3.71504
19.5	3.71701
19.51	3.72129
19.52	3.72425
19.53	3.72688
19.54	3.71964
19.55	3.72326
19.56	3.72195
19.57	3.72491
19.58	3.72227
19.59	3.71537
19.6	3.71898
19.61	3.71438
19.62	3.71866
19.63	3.71898
19.64	3.71964
19.65	3.71701
19.66	3.72063
19.67	3.72326
19.68	3.7203
19.69	3.71635
19.7	3.71767
19.71	3.71635
19.72	3.71668
19.73	3.7226
19.74	3.71964
19.75	3.72063
19.76	3.71635
19.77	3.72162
19.78	3.7203
19.79	3.72458
19.8	3.71833
19.81	3.72392
19.82	3.71471
19.83	3.71241
19.84	3.71767
19.85	3.71964
19.86	3.72491
19.87	3.71866
19.88	3.71043
19.89	3.71372
19.9	3.71833
19.91	3.72129
19.92	3.71471
19.93	3.71339
19.94	3.71701
19.95	3.71833
19.96	3.71635
19.97	3.718
19.98	3.71668
19.99	3.71767
20	3.7226
20.01	3.71866
20.02	3.71339
20.03	3.71997
20.04	3.71931
20.05	3.72293
20.06	3.72326
20.07	3.72227
20.08	3.72129
20.09	3.7203
20.1	3.71602
20.11	3.7203
20.12	3.72491
20.13	3.72293
20.14	3.71602
20.15	3.71602
20.16	3.72129
20.17	3.72326
20.18	3.72458
20.19	3.72359
20.2	3.72392
20.21	3.72326
20.22	3.71767
20.23	3.71339
20.24	3.72523
20.25	3.71997
20.26	3.71997
20.27	3.72622
20.28	3.72425
20.29	3.7203
20.3	3.71964
20.31	3.71833
20.32	3.71504
20.33	3.71537
20.34	3.71504
20.35	3.71668
20.36	3.7203
20.37	3.71208
20.38	3.71405
20.39	3.71964
20.4	3.7157
20.41	3.71537
20.42	3.71372
20.43	3.7101
20.44	3.71043
20.45	3.71175
20.46	3.70879
20.47	3.71043
20.48	3.7055
20.49	3.70846
20.5	3.71175
20.51	3.71701
20.52	3.71273
20.53	3.71043
20.54	3.71043
20.55	3.7078
20.56	3.71372
20.57	3.71241
20.58	3.71339
20.59	3.70747
20.6	3.70944
20.61	3.71405
20.62	3.7157
20.63	3.70681
20.64	3.7101
20.65	3.71109
20.66	3.71339
20.67	3.71142
20.68	3.71109
20.69	3.71142
20.7	3.71602
20.71	3.71043
20.72	3.70616
20.73	3.71241
20.74	3.70648
20.75	3.70944
20.76	3.70681
20.77	3.70813
20.78	3.70616
20.79	3.70813
20.8	3.71109
20.81	3.71339
20.82	3.71866
20.83	3.71142
20.84	3.70517
20.85	3.70484
20.86	3.71142
20.87	3.71241
20.88	3.71471
20.89	3.71208
20.9	3.71602
20.91	3.70879
20.92	3.70944
20.93	3.71076
20.94	3.71109
20.95	3.70879
20.96	3.70879
20.97	3.71241
20.98	3.71602
20.99	3.70912
21	3.70912
21.01	3.71438
21.02	3.71043
21.03	3.71405
21.04	3.70879
21.05	3.70714
21.06	3.7055
21.07	3.71175
21.08	3.71175
21.09	3.70714
21.1	3.71306
21.11	3.71109
21.12	3.71175
21.13	3.71241
21.14	3.7101
21.15	3.71504
21.16	3.71076
21.17	3.71372
21.18	3.71734
21.19	3.71668
21.2	3.71635
21.21	3.71306
21.22	3.71241
21.23	3.71635
21.24	3.71405
21.25	3.71306
21.26	3.71109
21.27	3.71241
21.28	3.71668
21.29	3.7078
21.3	3.71241
21.31	3.70912
21.32	3.71076
21.33	3.70912
21.34	3.70944
21.35	3.70714
21.36	3.71043
21.37	3.71701
21.38	3.71109
21.39	3.71142
21.4	3.71438
21.41	3.71175
21.42	3.70879
21.43	3.70484
21.44	3.71142
21.45	3.71504
21.46	3.70846
21.47	3.70418
21.48	3.70813
21.49	3.71142
21.5	3.71471
21.51	3.71767
21.52	3.71175
21.53	3.70352
21.54	3.70616
21.55	3.7078
21.56	3.70747
21.57	3.70352
21.58	3.70714
21.59	3.70648
21.6	3.70616
21.61	3.70616
21.62	3.70616
21.63	3.70714
21.64	3.70648
21.65	3.71076
21.66	3.71241
21.67	3.71076
21.68	3.70648
21.69	3.71109
21.7	3.70846
21.71	3.71175
21.72	3.70188
21.73	3.70484
21.74	3.70155
21.75	3.70879
21.76	3.70616
21.77	3.70846
21.78	3.70944
21.79	3.70879
21.8	3.71109
21.81	3.70879
21.82	3.70648
21.83	3.71372
21.84	3.70912
21.85	3.70319
21.86	3.70879
21.87	3.70583
21.88	3.70583
21.89	3.71142
21.9	3.71076
21.91	3.70583
21.92	3.71372
21.93	3.70747
21.94	3.70714
21.95	3.70155
21.96	3.70484
21.97	3.71043
21.98	3.71076
21.99	3.7055
22	3.70517
22.01	3.71043
22.02	3.71142
22.03	3.7101
22.04	3.71043
22.05	3.70944
22.06	3.70484
22.07	3.70583
22.08	3.71076
22.09	3.70616
22.1	3.70813
22.11	3.70023
22.12	3.70023
22.13	3.71241
22.14	3.70977
22.15	3.71241
22.16	3.71273
22.17	3.71273
22.18	3.71273
22.19	3.70484
22.2	3.70813
22.21	3.7078
22.22	3.71273
22.23	3.70714
22.24	3.71043
22.25	3.70648
22.26	3.70912
22.27	3.71043
22.28	3.70616
22.29	3.70846
22.3	3.70944
22.31	3.70846
22.32	3.70747
22.33	3.71438
22.34	3.71931
22.35	3.71372
22.36	3.71635
22.37	3.7101
22.38	3.71471
22.39	3.71043
22.4	3.71241
22.41	3.7078
22.42	3.70747
22.43	3.70879
22.44	3.7055
22.45	3.70846
22.46	3.71273
22.47	3.70517
22.48	3.70616
22.49	3.71372
22.5	3.70879
22.51	3.7078
22.52	3.70484
22.53	3.70879
22.54	3.70451
22.55	3.70616
22.56	3.70089
22.57	3.70023
22.58	3.70517
22.59	3.70155
22.6	3.70648
22.61	3.70155
22.62	3.70319
22.63	3.69991
22.64	3.70517
22.65	3.70714
22.66	3.69892
22.67	3.70484
22.68	3.70122
22.69	3.69925
22.7	3.70122
22.71	3.70616
22.72	3.69727
22.73	3.69563
22.74	3.70352
22.75	3.69826
22.76	3.70188
22.77	3.69991
22.78	3.69826
22.79	3.70023
22.8	3.70319
22.81	3.70714
22.82	3.70484
22.83	3.70089
22.84	3.69892
22.85	3.69892
22.86	3.70089
22.87	3.70188
22.88	3.70056
22.89	3.69991
22.9	3.70056
22.91	3.69892
22.92	3.69859
22.93	3.70188
22.94	3.69629
22.95	3.69563
22.96	3.70023
22.97	3.70221
22.98	3.70517
22.99	3.70583
23	3.70221
23.01	3.70484
23.02	3.70418
23.03	3.70385
23.04	3.69892
23.05	3.69793
23.06	3.70056
23.07	3.7055
23.08	3.70944
23.09	3.70977
23.1	3.69892
23.11	3.69859
23.12	3.69925
23.13	3.69793
23.14	3.69826
23.15	3.70089
23.16	3.70451
23.17	3.70122
23.18	3.70418
23.19	3.70747
23.2	3.69596
23.21	3.70188
23.22	3.70089
23.23	3.70287
23.24	3.70089
23.25	3.6976
23.26	3.70451
23.27	3.70287
23.28	3.70122
23.29	3.69958
23.3	3.69826
23.31	3.69859
23.32	3.69826
23.33	3.69267
23.34	3.70089
23.35	3.70023
23.36	3.69037
23.37	3.69793
23.38	3.69365
23.39	3.69004
23.4	3.6953
23.41	3.69037
23.42	3.69662
23.43	3.69694
23.44	3.6953
23.45	3.6874
23.46	3.69135
23.47	3.6976
23.48	3.69826
23.49	3.69563
23.5	3.6976
23.51	3.69201
23.52	3.69267
23.53	3.69267
23.54	3.69102
23.55	3.69694
23.56	3.69365
23.57	3.69365
23.58	3.68839
23.59	3.69201
23.6	3.69365
23.61	3.69727
23.62	3.69925
23.63	3.70188
23.64	3.6953
23.65	3.69333
23.66	3.69333
23.67	3.69464
23.68	3.70714
23.69	3.70451
23.7	3.70648
23.71	3.69596
23.72	3.70155
23.73	3.70681
23.74	3.69925
23.75	3.70616
23.76	3.71175
23.77	3.69694
23.78	3.69892
23.79	3.69991
23.8	3.70616
23.81	3.69826
23.82	3.70089
23.83	3.69694
23.84	3.69793
23.85	3.70418
23.86	3.70023
23.87	3.70254
23.88	3.69826
23.89	3.69991
23.9	3.70155
23.91	3.70714
23.92	3.70254
23.93	3.69629
23.94	3.70616
23.95	3.69365
23.96	3.70319
23.97	3.70352
23.98	3.69464
23.99	3.69826
24	3.70188
24.01	3.70188
24.02	3.70023
24.03	3.69629
24.04	3.70155
24.05	3.69629
24.06	3.69201
24.07	3.70023
24.08	3.70616
24.09	3.6976
24.1	3.69563
24.11	3.69168
24.12	3.68806
24.13	3.69267
24.14	3.70319
24.15	3.69365
24.16	3.69135
24.17	3.69596
24.18	3.69892
24.19	3.70155
24.2	3.69267
24.21	3.69201
24.22	3.6976
24.23	3.69398
24.24	3.69563
24.25	3.69925
24.26	3.69793
24.27	3.69629
24.28	3.69793
24.29	3.69365
24.3	3.69563
24.31	3.69662
24.32	3.69004
24.33	3.68839
24.34	3.69464
24.35	3.69431
24.36	3.69168
24.37	3.69037
24.38	3.69201
24.39	3.69826
24.4	3.69497
24.41	3.69826
24.42	3.69991
24.43	3.69464
24.44	3.70484
24.45	3.69037
24.46	3.69662
24.47	3.69004
24.48	3.69991
24.49	3.69694
24.5	3.69958
24.51	3.68773
24.52	3.69925
24.53	3.70089
24.54	3.69629
24.55	3.69234
24.56	3.69365
24.57	3.69629
24.58	3.69629
24.59	3.69234
24.6	3.68675
24.61	3.69069
24.62	3.68971
24.63	3.69102
24.64	3.69333
24.65	3.69201
24.66	3.69464
24.67	3.69629
24.68	3.69102
24.69	3.68806
24.7	3.68412
24.71	3.69629
24.72	3.69431
24.73	3.69629
24.74	3.68839
24.75	3.68905
24.76	3.68675
24.77	3.68379
24.78	3.6874
24.79	3.68379
24.8	3.69102
24.81	3.69234
24.82	3.69037
24.83	3.68872
24.84	3.69168
24.85	3.69135
24.86	3.6874
24.87	3.68675
24.88	3.68214
24.89	3.68148
24.9	3.68971
24.91	3.68872
24.92	3.68675
24.93	3.68543
24.94	3.68346
24.95	3.69497
24.96	3.69365
24.97	3.70056
24.98	3.69267
24.99	3.69596
25	3.69037
25.01	3.69267
25.02	3.70089
25.03	3.69694
25.04	3.70122
25.05	3.69727
25.06	3.69431
25.07	3.69135
25.08	3.69431
25.09	3.69431
25.1	3.69596
25.11	3.69398
25.12	3.69365
25.13	3.70583
25.14	3.70155
25.15	3.69991
25.16	3.69925
25.17	3.69102
25.18	3.69662
25.19	3.70056
25.2	3.69398
25.21	3.69168
25.22	3.69168
25.23	3.69727
25.24	3.6953
25.25	3.70023
25.26	3.6953
25.27	3.69596
25.28	3.69333
25.29	3.69037
25.3	3.70221
25.31	3.69365
25.32	3.69629
25.33	3.69497
25.34	3.68675
25.35	3.69464
25.36	3.70418
25.37	3.69234
25.38	3.69793
25.39	3.69859
25.4	3.69398
25.41	3.69168
25.42	3.6953
25.43	3.69727
25.44	3.69102
25.45	3.68905
25.46	3.68806
25.47	3.69168
25.48	3.68773
25.49	3.6874
25.5	3.68313
25.51	3.69102
25.52	3.68642
25.53	3.68115
25.54	3.68806
25.55	3.69102
25.56	3.68675
25.57	3.68214
25.58	3.68675
25.59	3.68872
25.6	3.68083
25.61	3.68017
25.62	3.68313
25.63	3.69004
25.64	3.69069
25.65	3.69135
25.66	3.69102
25.67	3.67852
25.68	3.68412
25.69	3.6874
25.7	3.69497
25.71	3.6874
25.72	3.6874
25.73	3.68576
25.74	3.69333
25.75	3.69497
25.76	3.69102
25.77	3.68675
25.78	3.69398
25.79	3.69892
25.8	3.69497
25.81	3.69497
25.82	3.69629
25.83	3.69234
25.84	3.68905
25.85	3.68543
25.86	3.69464
25.87	3.69102
25.88	3.68576
25.89	3.68444
25.9	3.68938
25.91	3.68642
25.92	3.69037
25.93	3.69037
25.94	3.68839
25.95	3.68708
25.96	3.68675
25.97	3.68576
25.98	3.69234
25.99	3.68839
26	3.69004
26.01	3.69201
26.02	3.69201
26.03	3.68642
26.04	3.69201
26.05	3.68971
26.06	3.69727
26.07	3.69168
26.08	3.68444
26.09	3.68477
26.1	3.68642
26.11	3.6874
26.12	3.68642
26.13	3.69102
26.14	3.69004
26.15	3.6874
26.16	3.68839
26.17	3.68675
26.18	3.68938
26.19	3.6828
26.2	3.68938
26.21	3.68773
26.22	3.69102
26.23	3.68576
26.24	3.68971
26.25	3.69037
26.26	3.6874
26.27	3.68839
26.28	3.69037
26.29	3.68905
26.3	3.67951
26.31	3.68872
26.32	3.69102
26.33	3.69398
26.34	3.69398
26.35	3.693
26.36	3.693
26.37	3.69201
26.38	3.68412
26.39	3.68412
26.4	3.68773
26.41	3.68971
26.42	3.69168
26.43	3.69102
26.44	3.6851
26.45	3.68971
26.46	3.68346
26.47	3.68839
26.48	3.68938
26.49	3.68017
26.5	3.68839
26.51	3.69201
26.52	3.69102
26.53	3.68642
26.54	3.68444
26.55	3.68971
26.56	3.6874
26.57	3.68938
26.58	3.68938
26.59	3.68642
26.6	3.68444
26.61	3.6874
26.62	3.69102
26.63	3.68346
26.64	3.6828
26.65	3.68642
26.66	3.68543
26.67	3.68576
26.68	3.67852
26.69	3.68576
26.7	3.68609
26.71	3.68083
26.72	3.68576
26.73	3.68773
26.74	3.69004
26.75	3.68115
26.76	3.68017
26.77	3.6851
26.78	3.68576
26.79	3.67984
26.8	3.68313
26.81	3.68379
26.82	3.68115
26.83	3.6828
26.84	3.68576
26.85	3.6874
26.86	3.68412
26.87	3.68773
26.88	3.68642
26.89	3.68708
26.9	3.68675
26.91	3.68444
26.92	3.68083
26.93	3.69004
26.94	3.6874
26.95	3.68115
26.96	3.68412
26.97	3.68609
26.98	3.68806
26.99	3.6851
27	3.68576
27.01	3.68477
27.02	3.68905
27.03	3.68576
27.04	3.68477
27.05	3.68609
27.06	3.69037
27.07	3.68181
27.08	3.68444
27.09	3.6874
27.1	3.68806
27.11	3.68872
27.12	3.6851
27.13	3.68346
27.14	3.67819
27.15	3.68444
27.16	3.6874
27.17	3.6805
27.18	3.68181
27.19	3.68181
27.2	3.67754
27.21	3.6749
27.22	3.67688
27.23	3.67885
27.24	3.68346
27.25	3.6805
27.26	3.67984
27.27	3.6703
27.28	3.67589
27.29	3.67425
27.3	3.67754
27.31	3.67655
27.32	3.6726
27.33	3.67819
27.34	3.67326
27.35	3.67293
27.36	3.66865
27.37	3.67688
27.38	3.67984
27.39	3.67688
27.4	3.67589
27.41	3.68083
27.42	3.67458
27.43	3.67293
27.44	3.67458
27.45	3.67293
27.46	3.67589
27.47	3.6749
27.48	3.67819
27.49	3.66964
27.5	3.6828
27.51	3.67852
27.52	3.67293
27.53	3.6749
27.54	3.67721
27.55	3.6726
27.56	3.68148
27.57	3.67754
27.58	3.67984
27.59	3.67754
27.6	3.67885
27.61	3.68313
27.62	3.68247
27.63	3.67721
27.64	3.67721
27.65	3.67458
27.66	3.67885
27.67	3.66997
27.68	3.67589
27.69	3.67819
27.7	3.67852
27.71	3.67984
27.72	3.67655
27.73	3.67786
27.74	3.67918
27.75	3.67951
27.76	3.68115
27.77	3.6703
27.78	3.67688
27.79	3.67655
27.8	3.68017
27.81	3.67984
27.82	3.67622
27.83	3.67984
27.84	3.6805
27.85	3.67458
27.86	3.67688
27.87	3.67161
27.88	3.67293
27.89	3.68115
27.9	3.67852
27.91	3.67655
27.92	3.68148
27.93	3.67885
27.94	3.67392
27.95	3.67556
27.96	3.67819
27.97	3.67063
27.98	3.67458
27.99	3.67326
28	3.67227
28.01	3.67655
28.02	3.67096
28.03	3.67754
28.04	3.67458
28.05	3.6726
28.06	3.668
28.07	3.67161
28.08	3.68115
28.09	3.68412
28.1	3.67984
28.11	3.67523
28.12	3.68214
28.13	3.6828
28.14	3.67589
28.15	3.68017
28.16	3.67688
28.17	3.67721
28.18	3.67688
28.19	3.67556
28.2	3.67129
28.21	3.68247
28.22	3.67951
28.23	3.67918
28.24	3.68017
28.25	3.67392
28.26	3.67129
28.27	3.67655
28.28	3.66569
28.29	3.67326
28.3	3.67293
28.31	3.67885
28.32	3.67425
28.33	3.67392
28.34	3.67589
28.35	3.67951
28.36	3.67425
28.37	3.67096
28.38	3.67721
28.39	3.67852
28.4	3.6726
28.41	3.67589
28.42	3.67194
28.43	3.67326
28.44	3.68017
28.45	3.67589
28.46	3.68017
28.47	3.6726
28.48	3.67786
28.49	3.6749
28.5	3.67096
28.51	3.67129
28.52	3.67622
28.53	3.68313
28.54	3.6749
28.55	3.67885
28.56	3.67063
28.57	3.67194
28.58	3.67754
28.59	3.68247
28.6	3.67721
28.61	3.67556
28.62	3.67326
28.63	3.67063
28.64	3.67458
28.65	3.67688
28.66	3.68148
28.67	3.6851
28.68	3.68083
28.69	3.67951
28.7	3.68181
28.71	3.68576
28.72	3.68477
28.73	3.68148
28.74	3.68444
28.75	3.68083
28.76	3.67688
28.77	3.67589
28.78	3.68214
28.79	3.68477
28.8	3.67754
28.81	3.67819
28.82	3.67721
28.83	3.68444
28.84	3.6851
28.85	3.6749
28.86	3.67984
28.87	3.68083
28.88	3.67918
28.89	3.67392
28.9	3.67523
28.91	3.67688
28.92	3.68181
28.93	3.68148
28.94	3.6805
28.95	3.67458
28.96	3.67293
28.97	3.67392
28.98	3.67688
28.99	3.67754
29	3.67161
29.01	3.67326
29.02	3.67885
29.03	3.6828
29.04	3.67293
29.05	3.67129
29.06	3.67556
29.07	3.67885
29.08	3.66668
29.09	3.66767
29.1	3.67227
29.11	3.67458
29.12	3.67129
29.13	3.6726
29.14	3.67063
29.15	3.66931
29.16	3.66701
29.17	3.66504
29.18	3.67754
29.19	3.6703
29.2	3.66865
29.21	3.67194
29.22	3.67063
29.23	3.67786
29.24	3.67458
29.25	3.67688
29.26	3.66931
29.27	3.668
29.28	3.67096
29.29	3.668
29.3	3.66734
29.31	3.66635
29.32	3.6726
29.33	3.67523
29.34	3.67786
29.35	3.67458
29.36	3.67589
29.37	3.6703
29.38	3.67622
29.39	3.66865
29.4	3.67392
29.41	3.68313
29.42	3.67129
29.43	3.66833
29.44	3.6749
29.45	3.67326
29.46	3.67161
29.47	3.67786
29.48	3.67359
29.49	3.67721
29.5	3.67293
29.51	3.67392
29.52	3.67622
29.53	3.67161
29.54	3.67819
29.55	3.67096
29.56	3.6703
29.57	3.67096
29.58	3.67819
29.59	3.67227
29.6	3.67523
29.61	3.67688
29.62	3.67359
29.63	3.67326
29.64	3.68115
29.65	3.67885
29.66	3.67589
29.67	3.68379
29.68	3.6805
29.69	3.68214
29.7	3.67194
29.71	3.67754
29.72	3.67556
29.73	3.67951
29.74	3.67852
29.75	3.6703
29.76	3.66668
29.77	3.67194
29.78	3.67392
29.79	3.67523
29.8	3.67129
29.81	3.67392
29.82	3.68148
29.83	3.67655
29.84	3.67786
29.85	3.67622
29.86	3.67425
29.87	3.66931
29.88	3.6703
29.89	3.67326
29.9	3.67096
29.91	3.67194
29.92	3.67096
29.93	3.67655
29.94	3.67754
29.95	3.66964
29.96	3.66898
29.97	3.66504
29.98	3.67392
29.99	3.67655
30	3.66931
