"BIO-KINE ASCII FILE"
"_COMMENT"	"MOS-500 Spectrometer"
"_COMMENT"	"Kinetics measurement"
"_COMMENT"	"Y Unit : Volt,  X Unit : s"
"_COMMENT"	"Excitation wavelength : 380 nm"
"_COMMENT"	"Fentes bandwidth =  1 nm"
"_COMMENT"	"HV= 850V"
"_COMMENT"	"Timebase  1 =  .01 s   3001 pts"
"_SFM"	"SFM-400 /S  Advanced mode"
"_SFM"	"Ratio : S1: 2.5, S2: 0, S3: 0, S4: 1"
"_SFM"	"Content : S1: , S2: , S3: , S4:"
"_SFM"	"Concentration : S1: , S2: , S3: , S4:"
"_SFM"	"Total volume : 209 µl  Flow : 3.5 mL/s"
"_SFM"	"Acquisition start :  10 ms before stop"
"_SFM"	"cuve=FC-15, s1=10 ml , s2=10 ml , s3=10 ml , s4=1.9 ml"
"_UNITX"	"s"
"_UNITY"	"Volt"
"_DELTAX"	0
"_DATA"
1e-300	4.79204
0.01	4.9279
0.02	5.00587
0.03	5.04699
0.04	5.05324
0.05	5.07166
0.06	5.09962
0.07	5.0664
0.08	5.04567
0.09	5.0835
0.1	5.09403
0.11	5.09041
0.12	5.07199
0.13	5.07166
0.14	5.07758
0.15	5.08251
0.16	5.0914
0.17	5.09765
0.18	5.06179
0.19	5.08482
0.2	5.05028
0.21	5.05817
0.22	5.05751
0.23	5.07659
0.24	5.08416
0.25	5.07988
0.26	5.06409
0.27	5.05949
0.28	5.06508
0.29	5.06672
0.3	5.03449
0.31	5.0483
0.32	5.05521
0.33	5.0664
0.34	5.04468
0.35	5.06015
0.36	5.046
0.37	5.05225
0.38	5.02824
0.39	5.00949
0.4	5.02824
0.41	5.046
0.42	5.06672
0.43	5.02889
0.44	5.01278
0.45	5.01771
0.46	5.00751
0.47	5.01442
0.48	5.03087
0.49	5.00225
0.5	4.99172
0.51	4.99797
0.52	5.00324
0.53	5.01771
0.54	5.00685
0.55	4.99731
0.56	4.98152
0.57	5.00751
0.58	4.98185
0.59	4.96179
0.6	4.9756
0.61	4.97231
0.62	4.98712
0.63	4.97231
0.64	4.95258
0.65	4.96442
0.66	4.94731
0.67	4.96442
0.68	4.92429
0.69	4.94501
0.7	4.95126
0.71	4.94369
0.72	4.92593
0.73	4.94534
0.74	4.96014
0.75	4.94962
0.76	4.94073
0.77	4.94797
0.78	4.95093
0.79	4.91639
0.8	4.91179
0.81	4.92231
0.82	4.96212
0.83	4.93481
0.84	4.92494
0.85	4.90159
0.86	4.90554
0.87	4.89764
0.88	4.89139
0.89	4.90554
0.9	4.90225
0.91	4.90521
0.92	4.87593
0.93	4.89435
0.94	4.88481
0.95	4.87659
0.96	4.86014
0.97	4.86178
0.98	4.86178
0.99	4.87297
1	4.87099
1.01	4.8733
1.02	4.87494
1.03	4.85948
1.04	4.85882
1.05	4.84007
1.06	4.86869
1.07	4.84435
1.08	4.84599
1.09	4.83251
1.1	4.8302
1.11	4.82626
1.12	4.83086
1.13	4.84336
1.14	4.85159
1.15	4.84632
1.16	4.85817
1.17	4.84797
1.18	4.82461
1.19	4.8302
1.2	4.83481
1.21	4.82593
1.22	4.8154
1.23	4.79895
1.24	4.79533
1.25	4.79698
1.26	4.80948
1.27	4.77066
1.28	4.77922
1.29	4.7881
1.3	4.80356
1.31	4.78711
1.32	4.78382
1.33	4.7802
1.34	4.7631
1.35	4.77922
1.36	4.7779
1.37	4.77329
1.38	4.78382
1.39	4.74073
1.4	4.75553
1.41	4.77395
1.42	4.77033
1.43	4.77329
1.44	4.76047
1.45	4.74204
1.46	4.73908
1.47	4.73514
1.48	4.74994
1.49	4.73711
1.5	4.72033
1.51	4.70092
1.52	4.72987
1.53	4.72231
1.54	4.6825
1.55	4.69434
1.56	4.73086
1.57	4.69336
1.58	4.70783
1.59	4.69665
1.6	4.70816
1.61	4.71046
1.62	4.68744
1.63	4.6927
1.64	4.67987
1.65	4.72461
1.66	4.69665
1.67	4.67428
1.68	4.67954
1.69	4.68217
1.7	4.69402
1.71	4.68777
1.72	4.67954
1.73	4.66836
1.74	4.67691
1.75	4.66737
1.76	4.66046
1.77	4.67494
1.78	4.66244
1.79	4.64862
1.8	4.67165
1.81	4.66276
1.82	4.66605
1.83	4.66507
1.84	4.63579
1.85	4.64599
1.86	4.67954
1.87	4.64533
1.88	4.62987
1.89	4.63184
1.9	4.62559
1.91	4.61408
1.92	4.61112
1.93	4.59796
1.94	4.60914
1.95	4.62526
1.96	4.59467
1.97	4.61013
1.98	4.59664
1.99	4.60289
2	4.59368
2.01	4.59993
2.02	4.59401
2.03	4.59335
2.04	4.60355
2.05	4.61375
2.06	4.5996
2.07	4.57855
2.08	4.57099
2.09	4.56638
2.1	4.59467
2.11	4.59928
2.12	4.57921
2.13	4.56441
2.14	4.57395
2.15	4.57921
2.16	4.55223
2.17	4.55585
2.18	4.55585
2.19	4.54697
2.2	4.57263
2.21	4.57987
2.22	4.53283
2.23	4.54401
2.24	4.54072
2.25	4.54072
2.26	4.52888
2.27	4.53908
2.28	4.53644
2.29	4.50947
2.3	4.51013
2.31	4.52592
2.32	4.53052
2.33	4.53776
2.34	4.52723
2.35	4.52822
2.36	4.51177
2.37	4.52362
2.38	4.50717
2.39	4.51769
2.4	4.51671
2.41	4.51901
2.42	4.48908
2.43	4.51243
2.44	4.49171
2.45	4.4848
2.46	4.48085
2.47	4.49401
2.48	4.47921
2.49	4.4871
2.5	4.48315
2.51	4.45947
2.52	4.47986
2.53	4.49138
2.54	4.46375
2.55	4.45914
2.56	4.46901
2.57	4.46177
2.58	4.44664
2.59	4.43184
2.6	4.45519
2.61	4.44664
2.62	4.44006
2.63	4.44236
2.64	4.4575
2.65	4.45881
2.66	4.43842
2.67	4.43907
2.68	4.43578
2.69	4.44335
2.7	4.43151
2.71	4.4223
2.72	4.42394
2.73	4.41769
2.74	4.4223
2.75	4.40684
2.76	4.39795
2.77	4.40289
2.78	4.39894
2.79	4.40552
2.8	4.38216
2.81	4.38315
2.82	4.39039
2.83	4.39006
2.84	4.39697
2.85	4.40091
2.86	4.39664
2.87	4.40387
2.88	4.39203
2.89	4.38052
2.9	4.3769
2.91	4.38677
2.92	4.37427
2.93	4.35848
2.94	4.37427
2.95	4.35223
2.96	4.36144
2.97	4.35124
2.98	4.37262
2.99	4.35256
3	4.33907
3.01	4.34762
3.02	4.32098
3.03	4.31078
3.04	4.33052
3.05	4.36407
3.06	4.3519
3.07	4.34729
3.08	4.32164
3.09	4.33216
3.1	4.30683
3.11	4.3394
3.12	4.34532
3.13	4.35683
3.14	4.3315
3.15	4.3315
3.16	4.30946
3.17	4.31473
3.18	4.3269
3.19	4.31933
3.2	4.30782
3.21	4.319
3.22	4.30848
3.23	4.29927
3.24	4.29729
3.25	4.30782
3.26	4.28973
3.27	4.294
3.28	4.30223
3.29	4.28282
3.3	4.29104
3.31	4.29532
3.32	4.26374
3.33	4.29631
3.34	4.2769
3.35	4.25124
3.36	4.27854
3.37	4.26769
3.38	4.27328
3.39	4.26078
3.4	4.2542
3.41	4.2588
3.42	4.26473
3.43	4.25552
3.44	4.24894
3.45	4.24334
3.46	4.24926
3.47	4.2588
3.48	4.26111
3.49	4.26209
3.5	4.22788
3.51	4.25124
3.52	4.23676
3.53	4.24532
3.54	4.23874
3.55	4.24762
3.56	4.22229
3.57	4.219
3.58	4.2394
3.59	4.22755
3.6	4.22328
3.61	4.24433
3.62	4.23315
3.63	4.22426
3.64	4.20584
3.65	4.20946
3.66	4.21604
3.67	4.19959
3.68	4.22328
3.69	4.22196
3.7	4.19268
3.71	4.21209
3.72	4.21045
3.73	4.20913
3.74	4.19663
3.75	4.19663
3.76	4.18939
3.77	4.18347
3.78	4.15781
3.79	4.19268
3.8	4.20749
3.81	4.1861
3.82	4.17657
3.83	4.16801
3.84	4.1736
3.85	4.1838
3.86	4.17788
3.87	4.16242
3.88	4.15518
3.89	4.16867
3.9	4.15354
3.91	4.15058
3.92	4.15913
3.93	4.14531
3.94	4.15847
3.95	4.15354
3.96	4.12854
3.97	4.15749
3.98	4.15288
3.99	4.144
4	4.1417
4.01	4.14235
4.02	4.13479
4.03	4.13676
4.04	4.13347
4.05	4.14202
4.06	4.12689
4.07	4.12262
4.08	4.12492
4.09	4.13939
4.1	4.11702
4.11	4.11768
4.12	4.12295
4.13	4.11867
4.14	4.12656
4.15	4.10354
4.16	4.09992
4.17	4.11012
4.18	4.11373
4.19	4.11867
4.2	4.119
4.21	4.10321
4.22	4.09762
4.23	4.11571
4.24	4.10518
4.25	4.09071
4.26	4.07886
4.27	4.09926
4.28	4.09071
4.29	4.11341
4.3	4.10781
4.31	4.0884
4.32	4.07163
4.33	4.0736
4.34	4.10025
4.35	4.06768
4.36	4.0815
4.37	4.06932
4.38	4.0838
4.39	4.069
4.4	4.05682
4.41	4.07492
4.42	4.06275
4.43	4.04728
4.44	4.0361
4.45	4.04893
4.46	4.06209
4.47	4.0565
4.48	4.04827
4.49	4.0565
4.5	4.05913
4.51	4.0588
4.52	4.05452
4.53	4.04136
4.54	4.05748
4.55	4.05288
4.56	4.04663
4.57	4.03972
4.58	4.03478
4.59	4.03182
4.6	4.03709
4.61	4.03084
4.62	4.03643
4.63	4.02228
4.64	4.03248
4.65	4.04136
4.66	4.03774
4.67	4.02064
4.68	4.00748
4.69	4.00715
4.7	4.01406
4.71	4.00649
4.72	4.0009
4.73	4.00452
4.74	4.00682
4.75	4.00485
4.76	4.01932
4.77	3.99432
4.78	3.98643
4.79	3.9963
4.8	3.98873
4.81	3.99531
4.82	3.9963
4.83	3.99991
4.84	3.99334
4.85	3.97327
4.86	3.99564
4.87	3.98314
4.88	3.97689
4.89	3.98051
4.9	3.99366
4.91	3.98676
4.92	3.9782
4.93	3.98084
4.94	3.97919
4.95	3.97261
4.96	3.9736
4.97	3.96537
4.98	3.97426
4.99	3.95156
5	3.93182
5.01	3.95024
5.02	3.93939
5.03	3.94037
5.04	3.94103
5.05	3.96143
5.06	3.95518
5.07	3.94037
5.08	3.93972
5.09	3.94465
5.1	3.93511
5.11	3.93643
5.12	3.95057
5.13	3.94432
5.14	3.94991
5.15	3.93741
5.16	3.94037
5.17	3.92952
5.18	3.91768
5.19	3.93412
5.2	3.94695
5.21	3.93939
5.22	3.94564
5.23	3.91833
5.24	3.91274
5.25	3.93083
5.26	3.91504
5.27	3.90715
5.28	3.92689
5.29	3.91636
5.3	3.88478
5.31	3.90715
5.32	3.91044
5.33	3.91932
5.34	3.92096
5.35	3.89761
5.36	3.88807
5.37	3.90616
5.38	3.89662
5.39	3.90814
5.4	3.90123
5.41	3.88774
5.42	3.893
5.43	3.89103
5.44	3.90912
5.45	3.89827
5.46	3.90189
5.47	3.87458
5.48	3.86636
5.49	3.86965
5.5	3.87031
5.51	3.86537
5.52	3.86833
5.53	3.86833
5.54	3.87623
5.55	3.84136
5.56	3.84169
5.57	3.86438
5.58	3.88511
5.59	3.87162
5.6	3.8555
5.61	3.8532
5.62	3.86044
5.63	3.85813
5.64	3.85715
5.65	3.85682
5.66	3.85287
5.67	3.83379
5.68	3.84859
5.69	3.84432
5.7	3.85188
5.71	3.82129
5.72	3.84333
5.73	3.84103
5.74	3.85649
5.75	3.83412
5.76	3.84662
5.77	3.86406
5.78	3.82721
5.79	3.818
5.8	3.84695
5.81	3.86504
5.82	3.8203
5.83	3.81175
5.84	3.83807
5.85	3.81997
5.86	3.81767
5.87	3.80715
5.88	3.82228
5.89	3.82392
5.9	3.81372
5.91	3.80287
5.92	3.80912
5.93	3.80386
5.94	3.82951
5.95	3.84103
5.96	3.8305
5.97	3.82063
5.98	3.82195
5.99	3.81997
6	3.81175
6.01	3.78807
6.02	3.80616
6.03	3.79991
6.04	3.78675
6.05	3.79629
6.06	3.80583
6.07	3.79037
6.08	3.8032
6.09	3.79826
6.1	3.80057
6.11	3.80616
6.12	3.80155
6.13	3.79432
6.14	3.78938
6.15	3.78774
6.16	3.78083
6.17	3.77754
6.18	3.76504
6.19	3.76504
6.2	3.76866
6.21	3.79333
6.22	3.77655
6.23	3.78182
6.24	3.77524
6.25	3.76142
6.26	3.77589
6.27	3.76076
6.28	3.76537
6.29	3.75056
6.3	3.76767
6.31	3.74991
6.32	3.77951
6.33	3.78346
6.34	3.77129
6.35	3.76405
6.36	3.7453
6.37	3.75287
6.38	3.74168
6.39	3.768
6.4	3.76274
6.41	3.7453
6.42	3.73543
6.43	3.7328
6.44	3.72688
6.45	3.74037
6.46	3.76537
6.47	3.75912
6.48	3.75353
6.49	3.73247
6.5	3.73543
6.51	3.73477
6.52	3.72951
6.53	3.74596
6.54	3.7305
6.55	3.75122
6.56	3.74399
6.57	3.72227
6.58	3.70352
6.59	3.71833
6.6	3.73379
6.61	3.75879
6.62	3.73576
6.63	3.71405
6.64	3.73214
6.65	3.73313
6.66	3.70944
6.67	3.70681
6.68	3.72984
6.69	3.71537
6.7	3.71635
6.71	3.72622
6.72	3.70912
6.73	3.72655
6.74	3.70122
6.75	3.68872
6.76	3.68148
6.77	3.69793
6.78	3.69563
6.79	3.70912
6.8	3.71602
6.81	3.70977
6.82	3.69168
6.83	3.70254
6.84	3.68181
6.85	3.69859
6.86	3.71438
6.87	3.69629
6.88	3.70319
6.89	3.70912
6.9	3.69464
6.91	3.67852
6.92	3.66898
6.93	3.68773
6.94	3.68642
6.95	3.65254
6.96	3.66405
6.97	3.67688
6.98	3.66142
6.99	3.65977
7	3.69925
7.01	3.66602
7.02	3.69464
7.03	3.69365
7.04	3.67194
7.05	3.66142
7.06	3.64069
7.07	3.66339
7.08	3.65648
7.09	3.67852
7.1	3.68477
7.11	3.6624
7.12	3.65879
7.13	3.65648
7.14	3.66964
7.15	3.65056
7.16	3.6703
7.17	3.65319
7.18	3.65221
7.19	3.64365
7.2	3.64925
7.21	3.65484
7.22	3.66306
7.23	3.66076
7.24	3.64102
7.25	3.64892
7.26	3.64892
7.27	3.65747
7.28	3.63971
7.29	3.63872
7.3	3.63411
7.31	3.64234
7.32	3.62392
7.33	3.63642
7.34	3.61997
7.35	3.63346
7.36	3.63477
7.37	3.64036
7.38	3.63773
7.39	3.63971
7.4	3.63675
7.41	3.62819
7.42	3.64102
7.43	3.65714
7.44	3.63971
7.45	3.62161
7.46	3.61964
7.47	3.63576
7.48	3.63905
7.49	3.62293
7.5	3.62392
7.51	3.60714
7.52	3.6078
7.53	3.64003
7.54	3.63148
7.55	3.61635
7.56	3.63247
7.57	3.61207
7.58	3.60418
7.59	3.61372
7.6	3.61372
7.61	3.59694
7.62	3.61602
7.63	3.61405
7.64	3.60582
7.65	3.60648
7.66	3.59957
7.67	3.5828
7.68	3.59266
7.69	3.59431
7.7	3.59003
7.71	3.60319
7.72	3.59924
7.73	3.5828
7.74	3.60484
7.75	3.62063
7.76	3.60155
7.77	3.59859
7.78	3.61799
7.79	3.61471
7.8	3.61997
7.81	3.58938
7.82	3.59398
7.83	3.58905
7.84	3.58806
7.85	3.56997
7.86	3.58148
7.87	3.59859
7.88	3.59694
7.89	3.5897
7.9	3.57128
7.91	3.55089
7.92	3.59102
7.93	3.60122
7.94	3.59069
7.95	3.56766
7.96	3.57556
7.97	3.57326
7.98	3.57951
7.99	3.5749
8	3.57885
8.01	3.5772
8.02	3.57359
8.03	3.55483
8.04	3.56043
8.05	3.56635
8.06	3.56372
8.07	3.56207
8.08	3.56174
8.09	3.57391
8.1	3.57293
8.11	3.56437
8.12	3.56964
8.13	3.5624
8.14	3.56766
8.15	3.56306
8.16	3.55845
8.17	3.5295
8.18	3.56306
8.19	3.56108
8.2	3.56503
8.21	3.5624
8.22	3.56832
8.23	3.57655
8.24	3.54661
8.25	3.54036
8.26	3.56437
8.27	3.55451
8.28	3.53082
8.29	3.5601
8.3	3.55615
8.31	3.54003
8.32	3.54365
8.33	3.5578
8.34	3.55747
8.35	3.5476
8.36	3.53279
8.37	3.52786
8.38	3.53839
8.39	3.52523
8.4	3.5295
8.41	3.52885
8.42	3.54102
8.43	3.52753
8.44	3.52622
8.45	3.54398
8.46	3.54826
8.47	3.53937
8.48	3.53543
8.49	3.51273
8.5	3.53247
8.51	3.5249
8.52	3.53345
8.53	3.52424
8.54	3.52556
8.55	3.5249
8.56	3.5397
8.57	3.53115
8.58	3.51865
8.59	3.52654
8.6	3.49924
8.61	3.51503
8.62	3.52029
8.63	3.51306
8.64	3.51108
8.65	3.51997
8.66	3.50911
8.67	3.51339
8.68	3.51733
8.69	3.51339
8.7	3.52293
8.71	3.50845
8.72	3.49891
8.73	3.49464
8.74	3.49628
8.75	3.51832
8.76	3.51832
8.77	3.53378
8.78	3.51865
8.79	3.50878
8.8	3.51964
8.81	3.51668
8.82	3.48115
8.83	3.50812
8.84	3.48641
8.85	3.51569
8.86	3.4976
8.87	3.49595
8.88	3.50089
8.89	3.49628
8.9	3.49299
8.91	3.49792
8.92	3.48082
8.93	3.49628
8.94	3.48477
8.95	3.48871
8.96	3.47161
8.97	3.48937
8.98	3.47885
8.99	3.48871
9	3.49398
9.01	3.47983
9.02	3.48937
9.03	3.48378
9.04	3.48575
9.05	3.48115
9.06	3.48082
9.07	3.48345
9.08	3.48608
9.09	3.48082
9.1	3.48378
9.11	3.48806
9.12	3.48542
9.13	3.4851
9.14	3.4874
9.15	3.48904
9.16	3.4795
9.17	3.48477
9.18	3.4749
9.19	3.47588
9.2	3.45417
9.21	3.46667
9.22	3.46963
9.23	3.46766
9.24	3.46536
9.25	3.45812
9.26	3.47885
9.27	3.47556
9.28	3.47391
9.29	3.46042
9.3	3.46766
9.31	3.45977
9.32	3.46602
9.33	3.45384
9.34	3.45549
9.35	3.46667
9.36	3.4522
9.37	3.46437
9.38	3.47227
9.39	3.46536
9.4	3.46667
9.41	3.44957
9.42	3.4374
9.43	3.43016
9.44	3.46009
9.45	3.45286
9.46	3.44595
9.47	3.46371
9.48	3.46667
9.49	3.4522
9.5	3.45516
9.51	3.45779
9.52	3.45977
9.53	3.47128
9.54	3.47424
9.55	3.44759
9.56	3.442
9.57	3.44891
9.58	3.45384
9.59	3.44134
9.6	3.44398
9.61	3.45681
9.62	3.45417
9.63	3.43871
9.64	3.46141
9.65	3.43773
9.66	3.45352
9.67	3.43345
9.68	3.45187
9.69	3.46404
9.7	3.44233
9.71	3.43345
9.72	3.43871
9.73	3.43904
9.74	3.43904
9.75	3.44891
9.76	3.43082
9.77	3.43575
9.78	3.43213
9.79	3.43246
9.8	3.41996
9.81	3.43509
9.82	3.41963
9.83	3.42292
9.84	3.42588
9.85	3.43608
9.86	3.43542
9.87	3.417
9.88	3.4272
9.89	3.4147
9.9	3.41733
9.91	3.42819
9.92	3.42588
9.93	3.42588
9.94	3.39825
9.95	3.41569
9.96	3.41437
9.97	3.42523
9.98	3.43641
9.99	3.41207
10	3.42851
10.01	3.42523
10.02	3.40121
10.03	3.4249
10.04	3.42259
10.05	3.41272
10.06	3.41338
10.07	3.42457
10.08	3.43641
10.09	3.4249
10.1	3.4068
10.11	3.42226
10.12	3.40976
10.13	3.43279
10.14	3.39957
10.15	3.41634
10.16	3.41338
10.17	3.41996
10.18	3.41963
10.19	3.4318
10.2	3.42884
10.21	3.40911
10.22	3.40845
10.23	3.40779
10.24	3.40351
10.25	3.4022
10.26	3.39036
10.27	3.39463
10.28	3.4124
10.29	3.41338
10.3	3.40516
10.31	3.40713
10.32	3.39003
10.33	3.38707
10.34	3.39233
10.35	3.417
10.36	3.39299
10.37	3.40944
10.38	3.40647
10.39	3.39858
10.4	3.39792
10.41	3.39463
10.42	3.40286
10.43	3.39332
10.44	3.40088
10.45	3.37292
10.46	3.37325
10.47	3.37391
10.48	3.37917
10.49	3.40812
10.5	3.41338
10.51	3.40384
10.52	3.37687
10.53	3.39003
10.54	3.41272
10.55	3.39759
10.56	3.38674
10.57	3.38805
10.58	3.38345
10.59	3.38213
10.6	3.36832
10.61	3.3772
10.62	3.38674
10.63	3.36963
10.64	3.39167
10.65	3.40253
10.66	3.38937
10.67	3.3874
10.68	3.38049
10.69	3.38279
10.7	3.38443
10.71	3.38608
10.72	3.41108
10.73	3.39266
10.74	3.37029
10.75	3.3693
10.76	3.36404
10.77	3.37391
10.78	3.3693
10.79	3.34759
10.8	3.3693
10.81	3.37786
10.82	3.36009
10.83	3.36503
10.84	3.38082
10.85	3.37128
10.86	3.36437
10.87	3.3693
10.88	3.37983
10.89	3.3795
10.9	3.35812
10.91	3.36963
10.92	3.38707
10.93	3.37358
10.94	3.37753
10.95	3.35253
10.96	3.36897
10.97	3.37522
10.98	3.35384
10.99	3.36272
11	3.35746
11.01	3.36404
11.02	3.36305
11.03	3.38213
11.04	3.38674
11.05	3.35647
11.06	3.3443
11.07	3.33312
11.08	3.33904
11.09	3.32588
11.1	3.33904
11.11	3.35417
11.12	3.342
11.13	3.34924
11.14	3.36174
11.15	3.3591
11.16	3.34858
11.17	3.3545
11.18	3.34858
11.19	3.3318
11.2	3.32884
11.21	3.33904
11.22	3.3693
11.23	3.36338
11.24	3.34759
11.25	3.32983
11.26	3.35022
11.27	3.35285
11.28	3.35187
11.29	3.36305
11.3	3.36601
11.31	3.34628
11.32	3.34496
11.33	3.34989
11.34	3.34693
11.35	3.36207
11.36	3.35384
11.37	3.32917
11.38	3.34891
11.39	3.35318
11.4	3.35253
11.41	3.35647
11.42	3.34792
11.43	3.33509
11.44	3.34299
11.45	3.33213
11.46	3.34299
11.47	3.33871
11.48	3.34726
11.49	3.32983
11.5	3.342
11.51	3.34759
11.52	3.36042
11.53	3.33838
11.54	3.32489
11.55	3.36404
11.56	3.34858
11.57	3.34924
11.58	3.34299
11.59	3.3272
11.6	3.32226
11.61	3.32226
11.62	3.34759
11.63	3.36042
11.64	3.35943
11.65	3.34068
11.66	3.34331
11.67	3.31141
11.68	3.32259
11.69	3.33213
11.7	3.33312
11.71	3.32358
11.72	3.32391
11.73	3.33772
11.74	3.32687
11.75	3.32851
11.76	3.31963
11.77	3.30483
11.78	3.33476
11.79	3.3295
11.8	3.33345
11.81	3.32621
11.82	3.33871
11.83	3.342
11.84	3.3295
11.85	3.32654
11.86	3.32095
11.87	3.33575
11.88	3.32555
11.89	3.30976
11.9	3.31601
11.91	3.33081
11.92	3.34003
11.93	3.33312
11.94	3.32522
11.95	3.32983
11.96	3.31798
11.97	3.32983
11.98	3.33246
11.99	3.3216
12	3.3147
12.01	3.31206
12.02	3.3318
12.03	3.32358
12.04	3.31996
12.05	3.34759
12.06	3.33509
12.07	3.2943
12.08	3.31239
12.09	3.31766
12.1	3.30877
12.11	3.32621
12.12	3.32127
12.13	3.3045
12.14	3.30022
12.15	3.30581
12.16	3.3091
12.17	3.29594
12.18	3.30318
12.19	3.30647
12.2	3.29627
12.21	3.30088
12.22	3.31568
12.23	3.30516
12.24	3.31108
12.25	3.30219
12.26	3.30713
12.27	3.30384
12.28	3.2693
12.29	3.3045
12.3	3.31535
12.31	3.29397
12.32	3.3147
12.33	3.28871
12.34	3.30285
12.35	3.30647
12.36	3.30812
12.37	3.31568
12.38	3.29101
12.39	3.30154
12.4	3.28838
12.41	3.31272
12.42	3.30812
12.43	3.32127
12.44	3.30812
12.45	3.3045
12.46	3.29594
12.47	3.31733
12.48	3.30121
12.49	3.29496
12.5	3.31404
12.51	3.31042
12.52	3.31075
12.53	3.30351
12.54	3.30647
12.55	3.30088
12.56	3.30647
12.57	3.3193
12.58	3.30581
12.59	3.31502
12.6	3.31535
12.61	3.3045
12.62	3.28509
12.63	3.29298
12.64	3.31075
12.65	3.28904
12.66	3.2966
12.67	3.27522
12.68	3.30088
12.69	3.28937
12.7	3.29923
12.71	3.30845
12.72	3.29759
12.73	3.31371
12.74	3.2943
12.75	3.28443
12.76	3.28871
12.77	3.27917
12.78	3.28476
12.79	3.29002
12.8	3.30548
12.81	3.31502
12.82	3.28969
12.83	3.29463
12.84	3.28081
12.85	3.30055
12.86	3.3045
12.87	3.30121
12.88	3.29529
12.89	3.29529
12.9	3.27654
12.91	3.29726
12.92	3.30647
12.93	3.29529
12.94	3.2795
12.95	3.28312
12.96	3.27785
12.97	3.28213
12.98	3.28904
12.99	3.28114
13	3.2841
13.01	3.28542
13.02	3.27094
13.03	3.27292
13.04	3.28081
13.05	3.27983
13.06	3.28673
13.07	3.28246
13.08	3.29035
13.09	3.25779
13.1	3.28279
13.11	3.27193
13.12	3.29562
13.13	3.28673
13.14	3.26206
13.15	3.2943
13.16	3.29726
13.17	3.28279
13.18	3.28114
13.19	3.28575
13.2	3.28969
13.21	3.27851
13.22	3.28575
13.23	3.26305
13.24	3.24726
13.25	3.27029
13.26	3.25647
13.27	3.27818
13.28	3.27621
13.29	3.2614
13.3	3.27785
13.31	3.28542
13.32	3.27029
13.33	3.27423
13.34	3.28838
13.35	3.28673
13.36	3.24693
13.37	3.26305
13.38	3.27621
13.39	3.27456
13.4	3.26996
13.41	3.27423
13.42	3.25976
13.43	3.25055
13.44	3.26733
13.45	3.26568
13.46	3.25943
13.47	3.24101
13.48	3.25779
13.49	3.26108
13.5	3.26338
13.51	3.26042
13.52	3.25351
13.53	3.25614
13.54	3.267
13.55	3.27687
13.56	3.25318
13.57	3.26404
13.58	3.25811
13.59	3.27917
13.6	3.28015
13.61	3.25943
13.62	3.27818
13.63	3.27094
13.64	3.27127
13.65	3.26568
13.66	3.25417
13.67	3.26831
13.68	3.2545
13.69	3.26338
13.7	3.25943
13.71	3.25022
13.72	3.26436
13.73	3.25877
13.74	3.24364
13.75	3.26305
13.76	3.28081
13.77	3.26634
13.78	3.26831
13.79	3.26436
13.8	3.25219
13.81	3.25055
13.82	3.27818
13.83	3.26864
13.84	3.26075
13.85	3.25548
13.86	3.25285
13.87	3.2545
13.88	3.26108
13.89	3.27193
13.9	3.26568
13.91	3.26535
13.92	3.26667
13.93	3.23476
13.94	3.24035
13.95	3.24693
13.96	3.25154
13.97	3.27752
13.98	3.26568
13.99	3.23805
14	3.24463
14.01	3.26239
14.02	3.2443
14.03	3.25022
14.04	3.23443
14.05	3.24529
14.06	3.24956
14.07	3.26404
14.08	3.25614
14.09	3.25219
14.1	3.26305
14.11	3.24759
14.12	3.23509
14.13	3.26305
14.14	3.2591
14.15	3.25351
14.16	3.25746
14.17	3.24594
14.18	3.2466
14.19	3.26206
14.2	3.24627
14.21	3.24989
14.22	3.2443
14.23	3.23443
14.24	3.24265
14.25	3.25252
14.26	3.25318
14.27	3.25154
14.28	3.25252
14.29	3.22785
14.3	3.24232
14.31	3.24364
14.32	3.24857
14.33	3.25154
14.34	3.25351
14.35	3.26765
14.36	3.24594
14.37	3.23739
14.38	3.25285
14.39	3.25713
14.4	3.23607
14.41	3.24759
14.42	3.2318
14.43	3.24529
14.44	3.25219
14.45	3.25121
14.46	3.25713
14.47	3.23805
14.48	3.25811
14.49	3.24529
14.5	3.23673
14.51	3.24068
14.52	3.23377
14.53	3.25779
14.54	3.25022
14.55	3.24989
14.56	3.24101
14.57	3.23772
14.58	3.23377
14.59	3.25154
14.6	3.22851
14.61	3.24232
14.62	3.2568
14.63	3.23575
14.64	3.2443
14.65	3.24825
14.66	3.26075
14.67	3.26042
14.68	3.24529
14.69	3.2364
14.7	3.24397
14.71	3.25614
14.72	3.24167
14.73	3.2466
14.74	3.23969
14.75	3.24594
14.76	3.24759
14.77	3.23509
14.78	3.23805
14.79	3.24002
14.8	3.22226
14.81	3.24035
14.82	3.22193
14.83	3.23278
14.84	3.24331
14.85	3.24496
14.86	3.24167
14.87	3.25581
14.88	3.24496
14.89	3.22588
14.9	3.24002
14.91	3.25351
14.92	3.23838
14.93	3.22259
14.94	3.23805
14.95	3.23147
14.96	3.23575
14.97	3.23015
14.98	3.23542
14.99	3.23673
15	3.23969
15.01	3.23278
15.02	3.22884
15.03	3.24134
15.04	3.20976
15.05	3.23213
15.06	3.23509
15.07	3.22324
15.08	3.23048
15.09	3.21272
15.1	3.22621
15.11	3.23805
15.12	3.23772
15.13	3.25351
15.14	3.23673
15.15	3.22588
15.16	3.2318
15.17	3.21864
15.18	3.19364
15.19	3.23114
15.2	3.24331
15.21	3.22456
15.22	3.22259
15.23	3.23443
15.24	3.21107
15.25	3.22884
15.26	3.2568
15.27	3.22719
15.28	3.22357
15.29	3.23114
15.3	3.21864
15.31	3.22653
15.32	3.21831
15.33	3.22423
15.34	3.22884
15.35	3.22752
15.36	3.22522
15.37	3.23081
15.38	3.23542
15.39	3.21107
15.4	3.20943
15.41	3.23969
15.42	3.23673
15.43	3.22686
15.44	3.22653
15.45	3.23081
15.46	3.22357
15.47	3.21765
15.48	3.21864
15.49	3.22456
15.5	3.23903
15.51	3.24035
15.52	3.22686
15.53	3.23344
15.54	3.22621
15.55	3.21173
15.56	3.2216
15.57	3.22423
15.58	3.24364
15.59	3.23278
15.6	3.24825
15.61	3.23344
15.62	3.22292
15.63	3.2193
15.64	3.21667
15.65	3.20811
15.66	3.20647
15.67	3.20745
15.68	3.22028
15.69	3.21765
15.7	3.2318
15.71	3.21502
15.72	3.23575
15.73	3.22028
15.74	3.2318
15.75	3.21798
15.76	3.2114
15.77	3.22522
15.78	3.22917
15.79	3.23575
15.8	3.21699
15.81	3.20976
15.82	3.21601
15.83	3.22061
15.84	3.2114
15.85	3.22193
15.86	3.22127
15.87	3.21009
15.88	3.19923
15.89	3.21371
15.9	3.20943
15.91	3.22292
15.92	3.22621
15.93	3.22588
15.94	3.22094
15.95	3.18673
15.96	3.20153
15.97	3.22324
15.98	3.20614
15.99	3.20252
16	3.22522
16.01	3.20778
16.02	3.1989
16.03	3.22028
16.04	3.21009
16.05	3.22292
16.06	3.21239
16.07	3.21831
16.08	3.20022
16.09	3.20153
16.1	3.22028
16.11	3.20778
16.12	3.19627
16.13	3.19923
16.14	3.21667
16.15	3.22094
16.16	3.21831
16.17	3.21206
16.18	3.22259
16.19	3.23147
16.2	3.20088
16.21	3.19759
16.22	3.21403
16.23	3.21107
16.24	3.21831
16.25	3.21667
16.26	3.20647
16.27	3.22028
16.28	3.22522
16.29	3.22686
16.3	3.20713
16.31	3.22653
16.32	3.20581
16.33	3.22259
16.34	3.20877
16.35	3.19495
16.36	3.20252
16.37	3.20548
16.38	3.22127
16.39	3.20943
16.4	3.20022
16.41	3.21305
16.42	3.21173
16.43	3.21009
16.44	3.20219
16.45	3.20614
16.46	3.20482
16.47	3.20384
16.48	3.20548
16.49	3.20745
16.5	3.21239
16.51	3.21272
16.52	3.21403
16.53	3.21074
16.54	3.21338
16.55	3.22259
16.56	3.20614
16.57	3.20976
16.58	3.21107
16.59	3.22292
16.6	3.18805
16.61	3.19232
16.62	3.19627
16.63	3.20844
16.64	3.23542
16.65	3.21239
16.66	3.19759
16.67	3.20219
16.68	3.21864
16.69	3.20055
16.7	3.2012
16.71	3.19693
16.72	3.22752
16.73	3.21765
16.74	3.2068
16.75	3.19594
16.76	3.21009
16.77	3.19923
16.78	3.22851
16.79	3.2216
16.8	3.18509
16.81	3.19364
16.82	3.2193
16.83	3.22094
16.84	3.21009
16.85	3.21864
16.86	3.20778
16.87	3.22292
16.88	3.1989
16.89	3.18805
16.9	3.20745
16.91	3.22423
16.92	3.21009
16.93	3.20943
16.94	3.20318
16.95	3.19759
16.96	3.20877
16.97	3.20844
16.98	3.19956
16.99	3.19199
17	3.20581
17.01	3.20252
17.02	3.20219
17.03	3.18772
17.04	3.21371
17.05	3.20581
17.06	3.21371
17.07	3.20614
17.08	3.2068
17.09	3.21601
17.1	3.18509
17.11	3.1841
17.12	3.19068
17.13	3.20318
17.14	3.19166
17.15	3.19035
17.16	3.20351
17.17	3.19495
17.18	3.20088
17.19	3.20351
17.2	3.20548
17.21	3.19199
17.22	3.19594
17.23	3.18772
17.24	3.20614
17.25	3.20647
17.26	3.21403
17.27	3.20384
17.28	3.19199
17.29	3.19035
17.3	3.19364
17.31	3.1887
17.32	3.20943
17.33	3.1943
17.34	3.2068
17.35	3.19824
17.36	3.19923
17.37	3.18838
17.38	3.2114
17.39	3.1989
17.4	3.21568
17.41	3.17818
17.42	3.19726
17.43	3.18147
17.44	3.21042
17.45	3.1943
17.46	3.18772
17.47	3.20647
17.48	3.20351
17.49	3.20647
17.5	3.20844
17.51	3.20976
17.52	3.19956
17.53	3.20088
17.54	3.21403
17.55	3.21107
17.56	3.20713
17.57	3.20088
17.58	3.20614
17.59	3.19857
17.6	3.18936
17.61	3.20482
17.62	3.1966
17.63	3.18147
17.64	3.1887
17.65	3.19561
17.66	3.18903
17.67	3.19364
17.68	3.21634
17.69	3.20811
17.7	3.19331
17.71	3.20384
17.72	3.20219
17.73	3.19463
17.74	3.19627
17.75	3.18541
17.76	3.19923
17.77	3.19759
17.78	3.18838
17.79	3.1966
17.8	3.21699
17.81	3.18509
17.82	3.19298
17.83	3.18213
17.84	3.21009
17.85	3.20811
17.86	3.18739
17.87	3.19397
17.88	3.20943
17.89	3.18706
17.9	3.19134
17.91	3.20581
17.92	3.2012
17.93	3.19463
17.94	3.19397
17.95	3.1818
17.96	3.19232
17.97	3.20088
17.98	3.20088
17.99	3.18443
18	3.19397
18.01	3.21074
18.02	3.19068
18.03	3.1966
18.04	3.1966
18.05	3.17719
18.06	3.17587
18.07	3.17982
18.08	3.17851
18.09	3.20318
18.1	3.17653
18.11	3.17785
18.12	3.18739
18.13	3.18443
18.14	3.1966
18.15	3.19594
18.16	3.19923
18.17	3.18344
18.18	3.1818
18.19	3.18081
18.2	3.18015
18.21	3.18245
18.22	3.17916
18.23	3.18081
18.24	3.1943
18.25	3.18739
18.26	3.18048
18.27	3.1716
18.28	3.18706
18.29	3.18969
18.3	3.19002
18.31	3.17555
18.32	3.16502
18.33	3.18081
18.34	3.17752
18.35	3.19101
18.36	3.19594
18.37	3.19298
18.38	3.19364
18.39	3.20088
18.4	3.21272
18.41	3.18772
18.42	3.18607
18.43	3.19726
18.44	3.19989
18.45	3.19726
18.46	3.20778
18.47	3.19726
18.48	3.18377
18.49	3.18607
18.5	3.18772
18.51	3.18772
18.52	3.17884
18.53	3.17884
18.54	3.18509
18.55	3.20055
18.56	3.16831
18.57	3.17522
18.58	3.17653
18.59	3.19331
18.6	3.18213
18.61	3.16798
18.62	3.17785
18.63	3.18838
18.64	3.20055
18.65	3.18245
18.66	3.19759
18.67	3.18114
18.68	3.1739
18.69	3.18377
18.7	3.18772
18.71	3.19759
18.72	3.17357
18.73	3.17916
18.74	3.17818
18.75	3.18344
18.76	3.21667
18.77	3.19726
18.78	3.19002
18.79	3.18114
18.8	3.16107
18.81	3.17982
18.82	3.18476
18.83	3.18377
18.84	3.18607
18.85	3.18377
18.86	3.19989
18.87	3.19331
18.88	3.16995
18.89	3.16666
18.9	3.19068
18.91	3.19397
18.92	3.17785
18.93	3.17193
18.94	3.18311
18.95	3.17291
18.96	3.17028
18.97	3.18147
18.98	3.19232
18.99	3.18805
19	3.1568
19.01	3.16699
19.02	3.19035
19.03	3.17357
19.04	3.1818
19.05	3.19134
19.06	3.18344
19.07	3.17916
19.08	3.17226
19.09	3.17916
19.1	3.19627
19.11	3.17719
19.12	3.20318
19.13	3.19331
19.14	3.17719
19.15	3.20318
19.16	3.19594
19.17	3.18081
19.18	3.19298
19.19	3.18838
19.2	3.1818
19.21	3.1841
19.22	3.18805
19.23	3.18574
19.24	3.18541
19.25	3.17587
19.26	3.18344
19.27	3.19134
19.28	3.19463
19.29	3.18838
19.3	3.19364
19.31	3.17423
19.32	3.18607
19.33	3.17785
19.34	3.18278
19.35	3.15745
19.36	3.17522
19.37	3.19364
19.38	3.16535
19.39	3.17423
19.4	3.17061
19.41	3.18147
19.42	3.17884
19.43	3.18114
19.44	3.18969
19.45	3.17752
19.46	3.18739
19.47	3.18574
19.48	3.18147
19.49	3.17489
19.5	3.19726
19.51	3.19824
19.52	3.19298
19.53	3.17357
19.54	3.18278
19.55	3.20384
19.56	3.18147
19.57	3.17291
19.58	3.15976
19.59	3.16995
19.6	3.1739
19.61	3.19265
19.62	3.19199
19.63	3.18607
19.64	3.20219
19.65	3.18344
19.66	3.17818
19.67	3.18015
19.68	3.18673
19.69	3.20186
19.7	3.17061
19.71	3.15548
19.72	3.17916
19.73	3.19002
19.74	3.16831
19.75	3.18377
19.76	3.17851
19.77	3.16305
19.78	3.16666
19.79	3.17456
19.8	3.1864
19.81	3.16634
19.82	3.14989
19.83	3.16995
19.84	3.1864
19.85	3.17752
19.86	3.18476
19.87	3.18377
19.88	3.17785
19.89	3.17522
19.9	3.1739
19.91	3.19101
19.92	3.17686
19.93	3.17587
19.94	3.1568
19.95	3.17357
19.96	3.18673
19.97	3.18213
19.98	3.18344
19.99	3.17423
20	3.19166
20.01	3.19331
20.02	3.16436
20.03	3.18574
20.04	3.1762
20.05	3.18443
20.06	3.18739
20.07	3.18805
20.08	3.1818
20.09	3.17489
20.1	3.17094
20.11	3.17686
20.12	3.16765
20.13	3.18838
20.14	3.17357
20.15	3.17226
20.16	3.18673
20.17	3.17061
20.18	3.15614
20.19	3.15318
20.2	3.17555
20.21	3.18476
20.22	3.17752
20.23	3.15943
20.24	3.18706
20.25	3.16502
20.26	3.18213
20.27	3.17587
20.28	3.16831
20.29	3.18541
20.3	3.1887
20.31	3.18311
20.32	3.18706
20.33	3.18213
20.34	3.17949
20.35	3.17291
20.36	3.16732
20.37	3.1841
20.38	3.19495
20.39	3.18377
20.4	3.17456
20.41	3.16008
20.42	3.17028
20.43	3.18574
20.44	3.16765
20.45	3.17818
20.46	3.18344
20.47	3.17226
20.48	3.16699
20.49	3.17324
20.5	3.17555
20.51	3.18476
20.52	3.16962
20.53	3.18015
20.54	3.17489
20.55	3.18147
20.56	3.17555
20.57	3.17884
20.58	3.18706
20.59	3.17193
20.6	3.16601
20.61	3.16699
20.62	3.1818
20.63	3.18443
20.64	3.17522
20.65	3.17456
20.66	3.17028
20.67	3.1887
20.68	3.18245
20.69	3.17522
20.7	3.17916
20.71	3.19627
20.72	3.18048
20.73	3.17061
20.74	3.17719
20.75	3.16436
20.76	3.16831
20.77	3.1841
20.78	3.17291
20.79	3.17982
20.8	3.18443
20.81	3.17719
20.82	3.16206
20.83	3.18114
20.84	3.17522
20.85	3.17818
20.86	3.17653
20.87	3.18114
20.88	3.17489
20.89	3.18015
20.9	3.15219
20.91	3.16897
20.92	3.17719
20.93	3.16272
20.94	3.16699
20.95	3.1818
20.96	3.19166
20.97	3.17982
20.98	3.16008
20.99	3.18147
21	3.18377
21.01	3.16173
21.02	3.18936
21.03	3.16666
21.04	3.15285
21.05	3.15976
21.06	3.16634
21.07	3.16107
21.08	3.16173
21.09	3.16601
21.1	3.16765
21.11	3.1568
21.12	3.1512
21.13	3.1716
21.14	3.17193
21.15	3.17291
21.16	3.17259
21.17	3.16897
21.18	3.16995
21.19	3.16403
21.2	3.17094
21.21	3.18147
21.22	3.1864
21.23	3.18015
21.24	3.16337
21.25	3.15943
21.26	3.17291
21.27	3.18114
21.28	3.16107
21.29	3.17686
21.3	3.16041
21.31	3.18574
21.32	3.1614
21.33	3.16173
21.34	3.16206
21.35	3.19627
21.36	3.18245
21.37	3.1841
21.38	3.15943
21.39	3.17061
21.4	3.16897
21.41	3.16305
21.42	3.14462
21.43	3.15186
21.44	3.14561
21.45	3.16107
21.46	3.16897
21.47	3.18476
21.48	3.1693
21.49	3.16699
21.5	3.17522
21.51	3.1739
21.52	3.17719
21.53	3.17423
21.54	3.16798
21.55	3.16469
21.56	3.17785
21.57	3.1568
21.58	3.16206
21.59	3.16535
21.6	3.17226
21.61	3.16305
21.62	3.16239
21.63	3.16107
21.64	3.16962
21.65	3.17719
21.66	3.16403
21.67	3.15712
21.68	3.16337
21.69	3.16502
21.7	3.17949
21.71	3.17061
21.72	3.16568
21.73	3.17456
21.74	3.18509
21.75	3.16568
21.76	3.16173
21.77	3.16337
21.78	3.15482
21.79	3.16107
21.8	3.17851
21.81	3.18114
21.82	3.17555
21.83	3.16469
21.84	3.16206
21.85	3.18772
21.86	3.1591
21.87	3.14068
21.88	3.15482
21.89	3.14857
21.9	3.15614
21.91	3.14298
21.92	3.15614
21.93	3.16634
21.94	3.15877
21.95	3.17949
21.96	3.17061
21.97	3.17193
21.98	3.16173
21.99	3.16436
22	3.16107
22.01	3.15943
22.02	3.1568
22.03	3.15252
22.04	3.1693
22.05	3.16107
22.06	3.15285
22.07	3.18114
22.08	3.16469
22.09	3.15778
22.1	3.15745
22.11	3.15943
22.12	3.16568
22.13	3.15811
22.14	3.16403
22.15	3.16634
22.16	3.15219
22.17	3.17127
22.18	3.16173
22.19	3.14528
22.2	3.14331
22.21	3.14923
22.22	3.17291
22.23	3.18213
22.24	3.16765
22.25	3.15482
22.26	3.16568
22.27	3.1568
22.28	3.16272
22.29	3.16337
22.3	3.16601
22.31	3.17752
22.32	3.18278
22.33	3.17785
22.34	3.16502
22.35	3.16041
22.36	3.17752
22.37	3.16436
22.38	3.15351
22.39	3.16206
22.4	3.18673
22.41	3.16634
22.42	3.1693
22.43	3.17489
22.44	3.17949
22.45	3.15745
22.46	3.15219
22.47	3.14462
22.48	3.17555
22.49	3.16074
22.5	3.15219
22.51	3.16008
22.52	3.16798
22.53	3.18344
22.54	3.17653
22.55	3.17587
22.56	3.17324
22.57	3.1693
22.58	3.17686
22.59	3.17423
22.6	3.18574
22.61	3.1591
22.62	3.15745
22.63	3.17094
22.64	3.15877
22.65	3.16239
22.66	3.16995
22.67	3.15811
22.68	3.16469
22.69	3.16173
22.7	3.14923
22.71	3.17357
22.72	3.17094
22.73	3.15976
22.74	3.17193
22.75	3.16831
22.76	3.1762
22.77	3.15318
22.78	3.16206
22.79	3.17061
22.8	3.15351
22.81	3.14594
22.82	3.16041
22.83	3.15087
22.84	3.14857
22.85	3.17028
22.86	3.17884
22.87	3.14495
22.88	3.14397
22.89	3.14857
22.9	3.16173
22.91	3.1591
22.92	3.15252
22.93	3.15877
22.94	3.18443
22.95	3.17259
22.96	3.14923
22.97	3.15712
22.98	3.17423
22.99	3.14758
23	3.1387
23.01	3.15482
23.02	3.16798
23.03	3.15647
23.04	3.15943
23.05	3.16305
23.06	3.17456
23.07	3.15712
23.08	3.16074
23.09	3.17982
23.1	3.1568
23.11	3.1614
23.12	3.18541
23.13	3.16107
23.14	3.15055
23.15	3.14857
23.16	3.15087
23.17	3.12949
23.18	3.14133
23.19	3.16074
23.2	3.17752
23.21	3.1614
23.22	3.16568
23.23	3.15614
23.24	3.17259
23.25	3.1693
23.26	3.17686
23.27	3.16535
23.28	3.1614
23.29	3.15976
23.3	3.15515
23.31	3.15416
23.32	3.17291
23.33	3.1512
23.34	3.14627
23.35	3.14824
23.36	3.16173
23.37	3.17719
23.38	3.17061
23.39	3.15647
23.4	3.1489
23.41	3.1512
23.42	3.15351
23.43	3.16107
23.44	3.18015
23.45	3.15647
23.46	3.15252
23.47	3.16008
23.48	3.1512
23.49	3.14989
23.5	3.16732
23.51	3.1489
23.52	3.16732
23.53	3.17489
23.54	3.15581
23.55	3.1568
23.56	3.16305
23.57	3.15515
23.58	3.15877
23.59	3.15055
23.6	3.1693
23.61	3.17259
23.62	3.15647
23.63	3.16403
23.64	3.17028
23.65	3.17555
23.66	3.1466
23.67	3.15745
23.68	3.16041
23.69	3.14758
23.7	3.15087
23.71	3.16107
23.72	3.15647
23.73	3.15186
23.74	3.16436
23.75	3.14528
23.76	3.15186
23.77	3.15285
23.78	3.14627
23.79	3.15712
23.8	3.1466
23.81	3.15745
23.82	3.16666
23.83	3.15449
23.84	3.15976
23.85	3.15778
23.86	3.14693
23.87	3.14199
23.88	3.16502
23.89	3.15614
23.9	3.14528
23.91	3.15351
23.92	3.16765
23.93	3.16436
23.94	3.1614
23.95	3.14693
23.96	3.18311
23.97	3.15745
23.98	3.15811
23.99	3.16568
24	3.15186
24.01	3.15055
24.02	3.16699
24.03	3.1568
24.04	3.15153
24.05	3.15351
24.06	3.15318
24.07	3.16337
24.08	3.16173
24.09	3.17028
24.1	3.17193
24.11	3.17061
24.12	3.15383
24.13	3.16798
24.14	3.16995
24.15	3.15318
24.16	3.15252
24.17	3.14989
24.18	3.15055
24.19	3.15844
24.2	3.14232
24.21	3.15153
24.22	3.16074
24.23	3.14857
24.24	3.16436
24.25	3.15778
24.26	3.14035
24.27	3.14857
24.28	3.13574
24.29	3.15416
24.3	3.14857
24.31	3.14265
24.32	3.15351
24.33	3.14462
24.34	3.15219
24.35	3.16699
24.36	3.1466
24.37	3.13541
24.38	3.16008
24.39	3.17653
24.4	3.17884
24.41	3.15548
24.42	3.15318
24.43	3.14627
24.44	3.17324
24.45	3.14528
24.46	3.1512
24.47	3.1489
24.48	3.16337
24.49	3.17489
24.5	3.1568
24.51	3.16173
24.52	3.16634
24.53	3.14101
24.54	3.14068
24.55	3.14594
24.56	3.14364
24.57	3.14199
24.58	3.1591
24.59	3.15482
24.6	3.14956
24.61	3.14956
24.62	3.15087
24.63	3.15318
24.64	3.15449
24.65	3.1591
24.66	3.15285
24.67	3.14956
24.68	3.15581
24.69	3.16305
24.7	3.16239
24.71	3.16765
24.72	3.15318
24.73	3.15416
24.74	3.14923
24.75	3.15712
24.76	3.14528
24.77	3.17127
24.78	3.15976
24.79	3.1568
24.8	3.1637
24.81	3.12818
24.82	3.16568
24.83	3.15778
24.84	3.1716
24.85	3.1716
24.86	3.15548
24.87	3.15811
24.88	3.13541
24.89	3.13804
24.9	3.14331
24.91	3.13772
24.92	3.14364
24.93	3.15712
24.94	3.1489
24.95	3.1512
24.96	3.14693
24.97	3.1489
24.98	3.15449
24.99	3.14528
25	3.15219
25.01	3.15515
25.02	3.14693
25.03	3.1568
25.04	3.16831
25.05	3.16502
25.06	3.16107
25.07	3.15318
25.08	3.17028
25.09	3.13706
25.1	3.14594
25.11	3.16798
25.12	3.14462
25.13	3.15581
25.14	3.18607
25.15	3.16634
25.16	3.16666
25.17	3.14561
25.18	3.13936
25.19	3.16272
25.2	3.16305
25.21	3.14166
25.22	3.15318
25.23	3.16403
25.24	3.14331
25.25	3.14989
25.26	3.14265
25.27	3.15153
25.28	3.15022
25.29	3.15285
25.3	3.14364
25.31	3.16469
25.32	3.1716
25.33	3.15943
25.34	3.14791
25.35	3.13936
25.36	3.15351
25.37	3.14989
25.38	3.16008
25.39	3.1512
25.4	3.14528
25.41	3.15252
25.42	3.15351
25.43	3.15581
25.44	3.16699
25.45	3.16436
25.46	3.14857
25.47	3.15055
25.48	3.14232
25.49	3.14726
25.5	3.14133
25.51	3.16535
25.52	3.14956
25.53	3.14791
25.54	3.15186
25.55	3.14462
25.56	3.15186
25.57	3.13508
25.58	3.16897
25.59	3.14035
25.6	3.15449
25.61	3.14495
25.62	3.13673
25.63	3.14627
25.64	3.14726
25.65	3.15581
25.66	3.15055
25.67	3.15153
25.68	3.1614
25.69	3.14561
25.7	3.14726
25.71	3.14462
25.72	3.15351
25.73	3.14101
25.74	3.14758
25.75	3.13574
25.76	3.14133
25.77	3.16436
25.78	3.16436
25.79	3.15778
25.8	3.16502
25.81	3.14331
25.82	3.13179
25.83	3.13739
25.84	3.14331
25.85	3.16206
25.86	3.15482
25.87	3.16337
25.88	3.17752
25.89	3.1591
25.9	3.16337
25.91	3.16008
25.92	3.16601
25.93	3.14989
25.94	3.14232
25.95	3.14199
25.96	3.16107
25.97	3.16403
25.98	3.16864
25.99	3.16008
26	3.15844
26.01	3.15186
26.02	3.13114
26.03	3.16337
26.04	3.16008
26.05	3.14791
26.06	3.13673
26.07	3.13476
26.08	3.14397
26.09	3.15055
26.1	3.14002
26.11	3.14857
26.12	3.1614
26.13	3.15482
26.14	3.13541
26.15	3.15022
26.16	3.14726
26.17	3.16337
26.18	3.15285
26.19	3.15186
26.2	3.14101
26.21	3.13837
26.22	3.14429
26.23	3.14265
26.24	3.14923
26.25	3.14265
26.26	3.14956
26.27	3.14232
26.28	3.14594
26.29	3.15055
26.3	3.16732
26.31	3.16962
26.32	3.1387
26.33	3.13969
26.34	3.16831
26.35	3.18377
26.36	3.16305
26.37	3.17061
26.38	3.15548
26.39	3.16601
26.4	3.14758
26.41	3.14956
26.42	3.1512
26.43	3.15844
26.44	3.15252
26.45	3.15055
26.46	3.18509
26.47	3.17028
26.48	3.15778
26.49	3.15351
26.5	3.16206
26.51	3.16008
26.52	3.1568
26.53	3.14989
26.54	3.1466
26.55	3.16008
26.56	3.16502
26.57	3.15416
26.58	3.14364
26.59	3.14166
26.6	3.15449
26.61	3.16305
26.62	3.15219
26.63	3.16272
26.64	3.17324
26.65	3.16864
26.66	3.15778
26.67	3.14429
26.68	3.15811
26.69	3.16337
26.7	3.17324
26.71	3.16041
26.72	3.15252
26.73	3.13804
26.74	3.14824
26.75	3.15186
26.76	3.15548
26.77	3.15285
26.78	3.15877
26.79	3.16436
26.8	3.14758
26.81	3.14627
26.82	3.15087
26.83	3.13903
26.84	3.15252
26.85	3.16864
26.86	3.1591
26.87	3.16305
26.88	3.16765
26.89	3.15055
26.9	3.15712
26.91	3.15482
26.92	3.14726
26.93	3.15285
26.94	3.14791
26.95	3.14133
26.96	3.14758
26.97	3.13443
26.98	3.1387
26.99	3.14265
27	3.15351
27.01	3.1512
27.02	3.15548
27.03	3.13739
27.04	3.14923
27.05	3.14002
27.06	3.14298
27.07	3.14232
27.08	3.13245
27.09	3.14693
27.1	3.13772
27.11	3.14923
27.12	3.15252
27.13	3.14462
27.14	3.15153
27.15	3.15745
27.16	3.14791
27.17	3.14364
27.18	3.14035
27.19	3.14397
27.2	3.16272
27.21	3.15252
27.22	3.14758
27.23	3.12456
27.24	3.14331
27.25	3.1466
27.26	3.14627
27.27	3.14495
27.28	3.13015
27.29	3.15647
27.3	3.14989
27.31	3.1512
27.32	3.14791
27.33	3.16239
27.34	3.16074
27.35	3.14495
27.36	3.14758
27.37	3.13903
27.38	3.15186
27.39	3.1387
27.4	3.14397
27.41	3.1387
27.42	3.1568
27.43	3.14561
27.44	3.15745
27.45	3.16206
27.46	3.15811
27.47	3.16074
27.48	3.15548
27.49	3.14693
27.5	3.14956
27.51	3.14101
27.52	3.14298
27.53	3.16568
27.54	3.15153
27.55	3.14528
27.56	3.15055
27.57	3.13344
27.58	3.13903
27.59	3.14101
27.6	3.15581
27.61	3.14265
27.62	3.13377
27.63	3.15383
27.64	3.14693
27.65	3.15153
27.66	3.15416
27.67	3.13607
27.68	3.1239
27.69	3.14857
27.7	3.15811
27.71	3.14397
27.72	3.12916
27.73	3.14726
27.74	3.14298
27.75	3.14101
27.76	3.1137
27.77	3.13607
27.78	3.15022
27.79	3.14627
27.8	3.13574
27.81	3.14693
27.82	3.14989
27.83	3.14528
27.84	3.14298
27.85	3.14298
27.86	3.15581
27.87	3.15548
27.88	3.13706
27.89	3.13344
27.9	3.1568
27.91	3.15778
27.92	3.1591
27.93	3.13541
27.94	3.1387
27.95	3.14758
27.96	3.1341
27.97	3.14331
27.98	3.14528
27.99	3.14364
28	3.14627
28.01	3.14331
28.02	3.15153
28.03	3.15515
28.04	3.15745
28.05	3.14561
28.06	3.13574
28.07	3.14364
28.08	3.15285
28.09	3.14528
28.1	3.1387
28.11	3.15055
28.12	3.14397
28.13	3.14594
28.14	3.16173
28.15	3.14495
28.16	3.13377
28.17	3.15844
28.18	3.15383
28.19	3.1512
28.2	3.14791
28.21	3.18147
28.22	3.17555
28.23	3.14857
28.24	3.1614
28.25	3.16074
28.26	3.16074
28.27	3.14989
28.28	3.14627
28.29	3.13739
28.3	3.15285
28.31	3.15087
28.32	3.15087
28.33	3.13147
28.34	3.13739
28.35	3.13574
28.36	3.14429
28.37	3.16732
28.38	3.13772
28.39	3.15055
28.4	3.13706
28.41	3.14594
28.42	3.12785
28.43	3.13443
28.44	3.15877
28.45	3.16272
28.46	3.16469
28.47	3.15581
28.48	3.13607
28.49	3.16469
28.5	3.16074
28.51	3.16107
28.52	3.14791
28.53	3.14364
28.54	3.15219
28.55	3.15943
28.56	3.14989
28.57	3.14166
28.58	3.15811
28.59	3.14956
28.6	3.16568
28.61	3.15449
28.62	3.12883
28.63	3.14528
28.64	3.14989
28.65	3.13739
28.66	3.15252
28.67	3.15285
28.68	3.15318
28.69	3.14166
28.7	3.14429
28.71	3.14627
28.72	3.15383
28.73	3.15548
28.74	3.15581
28.75	3.14824
28.76	3.15055
28.77	3.14857
28.78	3.14528
28.79	3.1387
28.8	3.16107
28.81	3.16337
28.82	3.15844
28.83	3.14429
28.84	3.14232
28.85	3.13179
28.86	3.14331
28.87	3.1512
28.88	3.14594
28.89	3.14923
28.9	3.16403
28.91	3.14857
28.92	3.15383
28.93	3.13903
28.94	3.1285
28.95	3.16008
28.96	3.16008
28.97	3.15515
28.98	3.1466
28.99	3.15153
29	3.13212
29.01	3.1387
29.02	3.15515
29.03	3.15515
29.04	3.16239
29.05	3.14429
29.06	3.15943
29.07	3.15877
29.08	3.14726
29.09	3.15548
29.1	3.16206
29.11	3.15811
29.12	3.14956
29.13	3.15482
29.14	3.14068
29.15	3.14002
29.16	3.14693
29.17	3.1285
29.18	3.16041
29.19	3.15482
29.2	3.14857
29.21	3.14528
29.22	3.15022
29.23	3.15581
29.24	3.14726
29.25	3.14923
29.26	3.16074
29.27	3.16666
29.28	3.15647
29.29	3.1512
29.3	3.15778
29.31	3.14429
29.32	3.1387
29.33	3.13804
29.34	3.15647
29.35	3.14429
29.36	3.15087
29.37	3.1239
29.38	3.14298
29.39	3.14528
29.4	3.13476
29.41	3.14265
29.42	3.13739
29.43	3.1489
29.44	3.14528
29.45	3.14364
29.46	3.15416
29.47	3.15515
29.48	3.14627
29.49	3.14462
29.5	3.12291
29.51	3.13114
29.52	3.13278
29.53	3.1489
29.54	3.15976
29.55	3.1364
29.56	3.13245
29.57	3.13673
29.58	3.15647
29.59	3.15285
29.6	3.1591
29.61	3.15186
29.62	3.15219
29.63	3.14232
29.64	3.13739
29.65	3.14101
29.66	3.13311
29.67	3.13739
29.68	3.15416
29.69	3.14989
29.7	3.13837
29.71	3.13212
29.72	3.14199
29.73	3.15022
29.74	3.14397
29.75	3.14495
29.76	3.14726
29.77	3.14364
29.78	3.14462
29.79	3.11831
29.8	3.13706
29.81	3.13081
29.82	3.14068
29.83	3.15055
29.84	3.13015
29.85	3.13936
29.86	3.14627
29.87	3.12094
29.88	3.14331
29.89	3.1614
29.9	3.15548
29.91	3.14364
29.92	3.1466
29.93	3.14594
29.94	3.15712
29.95	3.16666
29.96	3.14923
29.97	3.14462
29.98	3.15351
29.99	3.15647
30	3.14265
