"BIO-KINE ASCII FILE"
"_COMMENT"	"MOS-500 Spectrometer"
"_COMMENT"	"Kinetics measurement"
"_COMMENT"	"Y Unit : Volt,  X Unit : s"
"_COMMENT"	"Excitation wavelength : 380 nm"
"_COMMENT"	"Fentes bandwidth =  1 nm"
"_COMMENT"	"HV= 625V"
"_COMMENT"	"Timebase  1 =  .01 s   3001 pts"
"_SFM"	"SFM-400 /S  Advanced mode"
"_SFM"	"Ratio : S1: 2.5, S2: 0, S3: 0, S4: 1"
"_SFM"	"Content : S1: , S2: , S3: , S4:"
"_SFM"	"Concentration : S1: , S2: , S3: , S4:"
"_SFM"	"Total volume : 209 µl  Flow : 3.5 mL/s"
"_SFM"	"Acquisition start :  10 ms before stop"
"_SFM"	"cuve=FC-15, s1=10 ml , s2=10 ml , s3=10 ml , s4=1.9 ml"
"_UNITX"	"s"
"_UNITY"	"Volt"
"_DELTAX"	0
"_DATA"
1e-300	6.26939
0.01	6.69868
0.02	6.78092
0.03	6.76875
0.04	6.78322
0.05	6.79967
0.06	6.81974
0.07	6.80987
0.08	6.81217
0.09	6.81974
0.1	6.82368
0.11	6.81513
0.12	6.82072
0.13	6.82204
0.14	6.82138
0.15	6.81875
0.16	6.82171
0.17	6.82763
0.18	6.81842
0.19	6.81414
0.2	6.81776
0.21	6.81217
0.22	6.80592
0.23	6.80592
0.24	6.80263
0.25	6.80131
0.26	6.79737
0.27	6.80658
0.28	6.78552
0.29	6.78618
0.3	6.77763
0.31	6.77631
0.32	6.76973
0.33	6.77269
0.34	6.76973
0.35	6.76612
0.36	6.75658
0.37	6.74802
0.38	6.74901
0.39	6.74802
0.4	6.74671
0.41	6.74013
0.42	6.7398
0.43	6.73881
0.44	6.73717
0.45	6.73815
0.46	6.72302
0.47	6.71381
0.48	6.70888
0.49	6.70855
0.5	6.70756
0.51	6.69967
0.52	6.69506
0.53	6.69835
0.54	6.68157
0.55	6.67796
0.56	6.67697
0.57	6.6717
0.58	6.67434
0.59	6.65493
0.6	6.6523
0.61	6.65427
0.62	6.65164
0.63	6.63914
0.64	6.63223
0.65	6.63026
0.66	6.63223
0.67	6.63355
0.68	6.62137
0.69	6.62137
0.7	6.61216
0.71	6.60822
0.72	6.60361
0.73	6.60164
0.74	6.59539
0.75	6.60131
0.76	6.59078
0.77	6.58947
0.78	6.57927
0.79	6.56743
0.8	6.56282
0.81	6.56085
0.82	6.55657
0.83	6.55591
0.84	6.55394
0.85	6.54275
0.86	6.53914
0.87	6.52137
0.88	6.5296
0.89	6.53058
0.9	6.51315
0.91	6.50723
0.92	6.49769
0.93	6.49506
0.94	6.49834
0.95	6.49209
0.96	6.48223
0.97	6.47729
0.98	6.47104
0.99	6.46051
1	6.45163
1.01	6.44933
1.02	6.449
1.03	6.44571
1.04	6.43222
1.05	6.42762
1.06	6.42532
1.07	6.42499
1.08	6.41315
1.09	6.40328
1.1	6.40591
1.11	6.40755
1.12	6.39143
1.13	6.39999
1.14	6.38025
1.15	6.37597
1.16	6.37696
1.17	6.3717
1.18	6.36512
1.19	6.35755
1.2	6.34834
1.21	6.34637
1.22	6.34308
1.23	6.33749
1.24	6.33058
1.25	6.32466
1.26	6.31972
1.27	6.3138
1.28	6.30821
1.29	6.30854
1.3	6.30755
1.31	6.299
1.32	6.29505
1.33	6.29538
1.34	6.28452
1.35	6.28189
1.36	6.27992
1.37	6.27268
1.38	6.26742
1.39	6.26314
1.4	6.25722
1.41	6.24472
1.42	6.24669
1.43	6.23222
1.44	6.23518
1.45	6.23025
1.46	6.22531
1.47	6.22465
1.48	6.21281
1.49	6.20985
1.5	6.20064
1.51	6.2013
1.52	6.19406
1.53	6.19505
1.54	6.1809
1.55	6.17465
1.56	6.17893
1.57	6.16248
1.58	6.15426
1.59	6.14899
1.6	6.15228
1.61	6.14077
1.62	6.13978
1.63	6.13123
1.64	6.12202
1.65	6.11972
1.66	6.1184
1.67	6.11248
1.68	6.11281
1.69	6.0957
1.7	6.09044
1.71	6.0855
1.72	6.08221
1.73	6.08189
1.74	6.07366
1.75	6.06577
1.76	6.05721
1.77	6.06248
1.78	6.0559
1.79	6.04998
1.8	6.03813
1.81	6.03517
1.82	6.02498
1.83	6.02399
1.84	6.02662
1.85	6.01642
1.86	6.00228
1.87	6.00228
1.88	5.99669
1.89	5.99438
1.9	5.98616
1.91	5.98616
1.92	5.97826
1.93	5.9684
1.94	5.96445
1.95	5.96247
1.96	5.95491
1.97	5.95359
1.98	5.95162
1.99	5.94076
2	5.93714
2.01	5.93353
2.02	5.92958
2.03	5.9207
2.04	5.90885
2.05	5.90622
2.06	5.90721
2.07	5.89043
2.08	5.8855
2.09	5.89241
2.1	5.89043
2.11	5.87991
2.12	5.87267
2.13	5.86642
2.14	5.85556
2.15	5.85852
2.16	5.84043
2.17	5.84175
2.18	5.8355
2.19	5.83583
2.2	5.82925
2.21	5.82826
2.22	5.82004
2.23	5.81115
2.24	5.80194
2.25	5.79504
2.26	5.79767
2.27	5.79471
2.28	5.78714
2.29	5.77102
2.3	5.77464
2.31	5.76675
2.32	5.76773
2.33	5.76082
2.34	5.74997
2.35	5.74734
2.36	5.73813
2.37	5.74997
2.38	5.73977
2.39	5.72924
2.4	5.72859
2.41	5.72727
2.42	5.70457
2.43	5.69766
2.44	5.69964
2.45	5.70293
2.46	5.68977
2.47	5.69405
2.48	5.68023
2.49	5.67694
2.5	5.67003
2.51	5.66115
2.52	5.65951
2.53	5.65753
2.54	5.65457
2.55	5.65358
2.56	5.64174
2.57	5.63747
2.58	5.63352
2.59	5.62825
2.6	5.62036
2.61	5.61674
2.62	5.61937
2.63	5.61246
2.64	5.60885
2.65	5.59667
2.66	5.59832
2.67	5.58911
2.68	5.58286
2.69	5.57529
2.7	5.572
2.71	5.57299
2.72	5.5572
2.73	5.55852
2.74	5.56148
2.75	5.54766
2.76	5.54305
2.77	5.53582
2.78	5.53187
2.79	5.52694
2.8	5.51542
2.81	5.51411
2.82	5.51674
2.83	5.51411
2.84	5.50753
2.85	5.50457
2.86	5.49207
2.87	5.48351
2.88	5.48647
2.89	5.49338
2.9	5.48055
2.91	5.47035
2.92	5.46049
2.93	5.44568
2.94	5.44535
2.95	5.447
2.96	5.44634
2.97	5.43581
2.98	5.43483
2.99	5.42825
3	5.42266
3.01	5.41772
3.02	5.41312
3.03	5.40226
3.04	5.40555
3.05	5.397
3.06	5.39141
3.07	5.39404
3.08	5.3845
3.09	5.37956
3.1	5.372
3.11	5.37331
3.12	5.36706
3.13	5.36542
3.14	5.3493
3.15	5.35292
3.16	5.34404
3.17	5.34173
3.18	5.3414
3.19	5.3345
3.2	5.33186
3.21	5.32627
3.22	5.31673
3.23	5.31147
3.24	5.31311
3.25	5.31147
3.26	5.30982
3.27	5.30949
3.28	5.2993
3.29	5.29765
3.3	5.2891
3.31	5.28417
3.32	5.27792
3.33	5.27495
3.34	5.27956
3.35	5.26739
3.36	5.25094
3.37	5.25851
3.38	5.24995
3.39	5.24041
3.4	5.23318
3.41	5.23219
3.42	5.22462
3.43	5.22495
3.44	5.22035
3.45	5.21607
3.46	5.21278
3.47	5.20818
3.48	5.20456
3.49	5.20061
3.5	5.2039
3.51	5.20127
3.52	5.18844
3.53	5.18975
3.54	5.17298
3.55	5.17232
3.56	5.17035
3.57	5.1641
3.58	5.15653
3.59	5.1539
3.6	5.15423
3.61	5.1437
3.62	5.14337
3.63	5.13811
3.64	5.12988
3.65	5.12133
3.66	5.11541
3.67	5.1187
3.68	5.10817
3.69	5.1062
3.7	5.10258
3.71	5.09896
3.72	5.0914
3.73	5.09567
3.74	5.09008
3.75	5.07199
3.76	5.07922
3.77	5.07166
3.78	5.06607
3.79	5.06376
3.8	5.0562
3.81	5.0483
3.82	5.04271
3.83	5.04929
3.84	5.03712
3.85	5.0312
3.86	5.02528
3.87	5.02462
3.88	5.0256
3.89	5.01903
3.9	5.01146
3.91	5.00916
3.92	5.00817
3.93	5.00587
3.94	4.99797
3.95	4.98087
3.96	4.98777
3.97	4.98646
3.98	4.98087
3.99	4.97659
4	4.97823
4.01	4.97396
4.02	4.96475
4.03	4.95883
4.04	4.95323
4.05	4.95784
4.06	4.94929
4.07	4.94008
4.08	4.9404
4.09	4.93613
4.1	4.92823
4.11	4.93152
4.12	4.92889
4.13	4.92264
4.14	4.91771
4.15	4.90784
4.16	4.9131
4.17	4.9085
4.18	4.9085
4.19	4.90455
4.2	4.89764
4.21	4.89863
4.22	4.89665
4.23	4.88942
4.24	4.88514
4.25	4.87659
4.26	4.8756
4.27	4.87428
4.28	4.86606
4.29	4.86145
4.3	4.85553
4.31	4.85455
4.32	4.85323
4.33	4.8529
4.34	4.84994
4.35	4.84402
4.36	4.83909
4.37	4.83481
4.38	4.82922
4.39	4.82955
4.4	4.82527
4.41	4.82297
4.42	4.81409
4.43	4.81376
4.44	4.80849
4.45	4.80619
4.46	4.80323
4.47	4.79566
4.48	4.79632
4.49	4.79731
4.5	4.78481
4.51	4.77691
4.52	4.77297
4.53	4.77132
4.54	4.76639
4.55	4.76408
4.56	4.76211
4.57	4.76211
4.58	4.75718
4.59	4.7529
4.6	4.74665
4.61	4.73579
4.62	4.73546
4.63	4.74171
4.64	4.73678
4.65	4.73086
4.66	4.72856
4.67	4.71836
4.68	4.71342
4.69	4.71441
4.7	4.70816
4.71	4.70915
4.72	4.70652
4.73	4.69763
4.74	4.69796
4.75	4.69994
4.76	4.69402
4.77	4.68974
4.78	4.68217
4.79	4.67362
4.8	4.67625
4.81	4.67132
4.82	4.67099
4.83	4.6723
4.84	4.66244
4.85	4.6575
4.86	4.65882
4.87	4.65717
4.88	4.6552
4.89	4.64928
4.9	4.64599
4.91	4.63743
4.92	4.64138
4.93	4.6325
4.94	4.63217
4.95	4.63349
4.96	4.62428
4.97	4.62263
4.98	4.61539
4.99	4.61309
5	4.61408
5.01	4.60914
5.02	4.60684
5.03	4.6052
5.04	4.5973
5.05	4.59335
5.06	4.58941
5.07	4.59566
5.08	4.58053
5.09	4.57855
5.1	4.5825
5.11	4.58513
5.12	4.57855
5.13	4.56835
5.14	4.56342
5.15	4.5677
5.16	4.55651
5.17	4.55783
5.18	4.55125
5.19	4.5473
5.2	4.54993
5.21	4.55256
5.22	4.54533
5.23	4.53414
5.24	4.53019
5.25	4.53546
5.26	4.52296
5.27	4.52691
5.28	4.52789
5.29	4.52526
5.3	4.51769
5.31	4.51737
5.32	4.51276
5.33	4.50881
5.34	4.50783
5.35	4.50388
5.36	4.49993
5.37	4.50125
5.38	4.495
5.39	4.48414
5.4	4.48743
5.41	4.48842
5.42	4.49302
5.43	4.48052
5.44	4.47559
5.45	4.4723
5.46	4.46605
5.47	4.46967
5.48	4.47625
5.49	4.4644
5.5	4.45815
5.51	4.45421
5.52	4.4575
5.53	4.45421
5.54	4.45618
5.55	4.45289
5.56	4.4473
5.57	4.43776
5.58	4.4394
5.59	4.43644
5.6	4.43381
5.61	4.43151
5.62	4.42197
5.63	4.4292
5.64	4.42131
5.65	4.41868
5.66	4.41243
5.67	4.4144
5.68	4.41013
5.69	4.40716
5.7	4.39927
5.71	4.40453
5.72	4.40947
5.73	4.4019
5.74	4.39894
5.75	4.39039
5.76	4.39368
5.77	4.38447
5.78	4.38315
5.79	4.38874
5.8	4.38578
5.81	4.38085
5.82	4.37723
5.83	4.38052
5.84	4.37427
5.85	4.37526
5.86	4.36966
5.87	4.36966
5.88	4.36473
5.89	4.36637
5.9	4.36868
5.91	4.36111
5.92	4.35453
5.93	4.35289
5.94	4.35486
5.95	4.35124
5.96	4.34631
5.97	4.33611
5.98	4.33743
5.99	4.33183
6	4.33118
6.01	4.32723
6.02	4.3269
6.03	4.3269
6.04	4.32525
6.05	4.32032
6.06	4.31506
6.07	4.31045
6.08	4.31571
6.09	4.31078
6.1	4.3065
6.11	4.30486
6.12	4.30321
6.13	4.30519
6.14	4.29992
6.15	4.29927
6.16	4.29269
6.17	4.29269
6.18	4.28973
6.19	4.28512
6.2	4.28644
6.21	4.27756
6.22	4.28315
6.23	4.27328
6.24	4.26769
6.25	4.27032
6.26	4.27065
6.27	4.26604
6.28	4.2667
6.29	4.26407
6.3	4.26111
6.31	4.26111
6.32	4.26111
6.33	4.25782
6.34	4.25617
6.35	4.2519
6.36	4.25058
6.37	4.24334
6.38	4.24137
6.39	4.24071
6.4	4.24071
6.41	4.24729
6.42	4.24532
6.43	4.23676
6.44	4.23347
6.45	4.23709
6.46	4.23019
6.47	4.23216
6.48	4.21867
6.49	4.2167
6.5	4.22163
6.51	4.21834
6.52	4.219
6.53	4.21867
6.54	4.21736
6.55	4.2167
6.56	4.21538
6.57	4.20387
6.58	4.20486
6.59	4.20453
6.6	4.20091
6.61	4.20157
6.62	4.19696
6.63	4.19893
6.64	4.19367
6.65	4.19433
6.66	4.19104
6.67	4.18939
6.68	4.19005
6.69	4.18512
6.7	4.17295
6.71	4.16834
6.72	4.17788
6.73	4.17196
6.74	4.16341
6.75	4.1611
6.76	4.16637
6.77	4.16834
6.78	4.16505
6.79	4.16275
6.8	4.1588
6.81	4.15387
6.82	4.15124
6.83	4.15387
6.84	4.15025
6.85	4.144
6.86	4.1463
6.87	4.14696
6.88	4.14334
6.89	4.14038
6.9	4.14038
6.91	4.1417
6.92	4.14038
6.93	4.13545
6.94	4.13906
6.95	4.13281
6.96	4.1315
6.97	4.12722
6.98	4.12821
6.99	4.12393
7	4.12163
7.01	4.11637
7.02	4.12525
7.03	4.11966
7.04	4.11637
7.05	4.11308
7.06	4.10946
7.07	4.10847
7.08	4.10979
7.09	4.1065
7.1	4.1088
7.11	4.10748
7.12	4.10189
7.13	4.10354
7.14	4.10156
7.15	4.09729
7.16	4.10321
7.17	4.09663
7.18	4.08873
7.19	4.09531
7.2	4.09202
7.21	4.09235
7.22	4.08511
7.23	4.08873
7.24	4.08808
7.25	4.0861
7.26	4.07492
7.27	4.06636
7.28	4.07294
7.29	4.07327
7.3	4.07722
7.31	4.08215
7.32	4.06702
7.33	4.06275
7.34	4.06768
7.35	4.06834
7.36	4.07097
7.37	4.06669
7.38	4.06209
7.39	4.0634
7.4	4.06209
7.41	4.06077
7.42	4.05748
7.43	4.06044
7.44	4.05715
7.45	4.06176
7.46	4.05386
7.47	4.05748
7.48	4.05584
7.49	4.04794
7.5	4.04926
7.51	4.05321
7.52	4.04432
7.53	4.03742
7.54	4.04071
7.55	4.04038
7.56	4.04038
7.57	4.03939
7.58	4.03281
7.59	4.03906
7.6	4.03281
7.61	4.02623
7.62	4.0259
7.63	4.0213
7.64	4.02426
7.65	4.02064
7.66	4.02327
7.67	4.01899
7.68	4.01965
7.69	4.01702
7.7	4.01406
7.71	4.01011
7.72	4.00748
7.73	4.00485
7.74	4.00781
7.75	4.00255
7.76	4.00485
7.77	4.00156
7.78	4.01011
7.79	4.00715
7.8	3.9986
7.81	3.99663
7.82	3.99827
7.83	3.99597
7.84	3.9884
7.85	3.99991
7.86	3.98939
7.87	3.9907
7.88	3.98873
7.89	3.98741
7.9	3.99465
7.91	3.99827
7.92	3.98676
7.93	3.99103
7.94	3.98478
7.95	3.98873
7.96	3.98741
7.97	3.97722
7.98	3.97623
7.99	3.97623
8	3.97261
8.01	3.96932
8.02	3.97261
8.03	3.97195
8.04	3.97459
8.05	3.97459
8.06	3.97393
8.07	3.96702
8.08	3.96735
8.09	3.96603
8.1	3.96439
8.11	3.96044
8.12	3.9634
8.13	3.95715
8.14	3.95814
8.15	3.95649
8.16	3.96077
8.17	3.95682
8.18	3.95814
8.19	3.95748
8.2	3.95583
8.21	3.95419
8.22	3.95024
8.23	3.94926
8.24	3.94629
8.25	3.95419
8.26	3.94268
8.27	3.94564
8.28	3.94465
8.29	3.95123
8.3	3.94366
8.31	3.94498
8.32	3.93906
8.33	3.94004
8.34	3.93544
8.35	3.93478
8.36	3.93774
8.37	3.93445
8.38	3.93708
8.39	3.93643
8.4	3.92985
8.41	3.92754
8.42	3.93018
8.43	3.93248
8.44	3.93215
8.45	3.92754
8.46	3.92919
8.47	3.9259
8.48	3.92524
8.49	3.92689
8.5	3.91932
8.51	3.918
8.52	3.91866
8.53	3.92096
8.54	3.92096
8.55	3.91537
8.56	3.91208
8.57	3.90814
8.58	3.91899
8.59	3.91998
8.6	3.90912
8.61	3.91011
8.62	3.90649
8.63	3.90846
8.64	3.9055
8.65	3.91143
8.66	3.9111
8.67	3.91077
8.68	3.90485
8.69	3.89892
8.7	3.90682
8.71	3.89991
8.72	3.89531
8.73	3.89498
8.74	3.8907
8.75	3.89333
8.76	3.89498
8.77	3.89333
8.78	3.8861
8.79	3.89202
8.8	3.8907
8.81	3.89103
8.82	3.89103
8.83	3.89004
8.84	3.8907
8.85	3.88807
8.86	3.88412
8.87	3.88083
8.88	3.88511
8.89	3.88774
8.9	3.88478
8.91	3.87919
8.92	3.87754
8.93	3.87623
8.94	3.88182
8.95	3.88116
8.96	3.8782
8.97	3.87721
8.98	3.87853
8.99	3.87853
9	3.87392
9.01	3.88116
9.02	3.87623
9.03	3.87656
9.04	3.87557
9.05	3.87162
9.06	3.87359
9.07	3.87228
9.08	3.86767
9.09	3.87162
9.1	3.86767
9.11	3.85649
9.12	3.86142
9.13	3.86669
9.14	3.86109
9.15	3.86241
9.16	3.85879
9.17	3.86109
9.18	3.85616
9.19	3.8578
9.2	3.86175
9.21	3.86274
9.22	3.86274
9.23	3.85517
9.24	3.85517
9.25	3.86274
9.26	3.85287
9.27	3.85452
9.28	3.85583
9.29	3.85616
9.3	3.84761
9.31	3.85616
9.32	3.85024
9.33	3.84629
9.34	3.8509
9.35	3.85287
9.36	3.85287
9.37	3.84596
9.38	3.83873
9.39	3.84432
9.4	3.84728
9.41	3.84399
9.42	3.84432
9.43	3.84465
9.44	3.84399
9.45	3.84333
9.46	3.84267
9.47	3.84004
9.48	3.84103
9.49	3.84169
9.5	3.83807
9.51	3.83642
9.52	3.83346
9.53	3.8328
9.54	3.83642
9.55	3.8407
9.56	3.83511
9.57	3.82886
9.58	3.83215
9.59	3.83642
9.6	3.83675
9.61	3.82919
9.62	3.82886
9.63	3.83346
9.64	3.82623
9.65	3.82557
9.66	3.82326
9.67	3.82491
9.68	3.82458
9.69	3.82392
9.7	3.82655
9.71	3.82886
9.72	3.82524
9.73	3.82129
9.74	3.82458
9.75	3.82294
9.76	3.81603
9.77	3.8134
9.78	3.80813
9.79	3.81274
9.8	3.81899
9.81	3.81372
9.82	3.818
9.83	3.81965
9.84	3.81307
9.85	3.81241
9.86	3.81241
9.87	3.80386
9.88	3.81307
9.89	3.81044
9.9	3.81241
9.91	3.80682
9.92	3.80945
9.93	3.80879
9.94	3.80155
9.95	3.80221
9.96	3.80386
9.97	3.80682
9.98	3.80188
9.99	3.80682
10	3.80945
10.01	3.79859
10.02	3.80418
10.03	3.79925
10.04	3.80451
10.05	3.79761
10.06	3.79859
10.07	3.79958
10.08	3.79859
10.09	3.79826
10.1	3.80418
10.11	3.79859
10.12	3.80254
10.13	3.793
10.14	3.79695
10.15	3.79991
10.16	3.79465
10.17	3.79366
10.18	3.79004
10.19	3.79596
10.2	3.79234
10.21	3.7907
10.22	3.79234
10.23	3.78675
10.24	3.7953
10.25	3.79432
10.26	3.793
10.27	3.79201
10.28	3.7907
10.29	3.78445
10.3	3.78313
10.31	3.78708
10.32	3.78412
10.33	3.78872
10.34	3.78741
10.35	3.78445
10.36	3.78741
10.37	3.78576
10.38	3.78576
10.39	3.78445
10.4	3.7828
10.41	3.77886
10.42	3.77918
10.43	3.77754
10.44	3.78313
10.45	3.78017
10.46	3.77589
10.47	3.76964
10.48	3.77491
10.49	3.77984
10.5	3.77984
10.51	3.77918
10.52	3.77787
10.53	3.7828
10.54	3.78313
10.55	3.77754
10.56	3.77129
10.57	3.77787
10.58	3.77491
10.59	3.77754
10.6	3.77359
10.61	3.76833
10.62	3.77162
10.63	3.7703
10.64	3.77392
10.65	3.77392
10.66	3.76833
10.67	3.768
10.68	3.77162
10.69	3.77096
10.7	3.77129
10.71	3.76603
10.72	3.76734
10.73	3.76932
10.74	3.76504
10.75	3.76668
10.76	3.75813
10.77	3.76208
10.78	3.76175
10.79	3.75945
10.8	3.77063
10.81	3.76932
10.82	3.76241
10.83	3.76504
10.84	3.76241
10.85	3.76109
10.86	3.76208
10.87	3.75945
10.88	3.76274
10.89	3.76109
10.9	3.76274
10.91	3.76438
10.92	3.75714
10.93	3.75681
10.94	3.75451
10.95	3.75912
10.96	3.76043
10.97	3.75747
10.98	3.75747
10.99	3.75353
11	3.7532
11.01	3.7555
11.02	3.76339
11.03	3.75484
11.04	3.75978
11.05	3.74629
11.06	3.75188
11.07	3.75353
11.08	3.75221
11.09	3.75451
11.1	3.74629
11.11	3.7453
11.12	3.7532
11.13	3.74991
11.14	3.75254
11.15	3.74728
11.16	3.74563
11.17	3.74464
11.18	3.74728
11.19	3.74431
11.2	3.74431
11.21	3.74826
11.22	3.75254
11.23	3.74859
11.24	3.74991
11.25	3.7407
11.26	3.73971
11.27	3.74958
11.28	3.75221
11.29	3.75024
11.3	3.7407
11.31	3.74629
11.32	3.74728
11.33	3.74596
11.34	3.74695
11.35	3.74135
11.36	3.74563
11.37	3.74596
11.38	3.74497
11.39	3.73971
11.4	3.73806
11.41	3.73708
11.42	3.74168
11.43	3.74366
11.44	3.74464
11.45	3.7453
11.46	3.74366
11.47	3.73872
11.48	3.73116
11.49	3.73576
11.5	3.74135
11.51	3.73247
11.52	3.73774
11.53	3.73445
11.54	3.73116
11.55	3.73477
11.56	3.73313
11.57	3.73609
11.58	3.73181
11.59	3.72852
11.6	3.73247
11.61	3.7328
11.62	3.7305
11.63	3.73181
11.64	3.73247
11.65	3.73839
11.66	3.72787
11.67	3.7305
11.68	3.72951
11.69	3.72523
11.7	3.72885
11.71	3.72852
11.72	3.73247
11.73	3.72951
11.74	3.72951
11.75	3.72852
11.76	3.72063
11.77	3.72688
11.78	3.73083
11.79	3.72326
11.8	3.72589
11.81	3.72359
11.82	3.71997
11.83	3.7203
11.84	3.72655
11.85	3.72392
11.86	3.72523
11.87	3.72491
11.88	3.72458
11.89	3.71964
11.9	3.71866
11.91	3.72129
11.92	3.72589
11.93	3.72787
11.94	3.72162
11.95	3.72195
11.96	3.72195
11.97	3.72688
11.98	3.72326
11.99	3.72129
12	3.72096
12.01	3.72326
12.02	3.71964
12.03	3.72326
12.04	3.72721
12.05	3.72359
12.06	3.72523
12.07	3.71767
12.08	3.71471
12.09	3.7157
12.1	3.71471
12.11	3.71767
12.12	3.71931
12.13	3.7157
12.14	3.71273
12.15	3.71635
12.16	3.72392
12.17	3.71537
12.18	3.71471
12.19	3.71273
12.2	3.71208
12.21	3.71635
12.22	3.7078
12.23	3.71306
12.24	3.71833
12.25	3.7203
12.26	3.71306
12.27	3.71701
12.28	3.71734
12.29	3.71701
12.3	3.7157
12.31	3.70681
12.32	3.70583
12.33	3.71306
12.34	3.7157
12.35	3.71635
12.36	3.71438
12.37	3.71109
12.38	3.71208
12.39	3.70912
12.4	3.71142
12.41	3.70879
12.42	3.7157
12.43	3.7101
12.44	3.70977
12.45	3.71043
12.46	3.71537
12.47	3.71142
12.48	3.70813
12.49	3.71109
12.5	3.70287
12.51	3.70583
12.52	3.70681
12.53	3.70944
12.54	3.71241
12.55	3.70648
12.56	3.70813
12.57	3.70287
12.58	3.69859
12.59	3.70846
12.6	3.71109
12.61	3.70352
12.62	3.70616
12.63	3.7055
12.64	3.70648
12.65	3.70188
12.66	3.70254
12.67	3.70681
12.68	3.70385
12.69	3.69596
12.7	3.693
12.71	3.70122
12.72	3.69563
12.73	3.69826
12.74	3.69398
12.75	3.6976
12.76	3.69793
12.77	3.70418
12.78	3.70122
12.79	3.70089
12.8	3.70254
12.81	3.70484
12.82	3.70451
12.83	3.70418
12.84	3.69694
12.85	3.69925
12.86	3.69694
12.87	3.69464
12.88	3.69563
12.89	3.69464
12.9	3.69859
12.91	3.68839
12.92	3.69267
12.93	3.6953
12.94	3.6976
12.95	3.69826
12.96	3.69398
12.97	3.6976
12.98	3.69991
12.99	3.69925
13	3.69662
13.01	3.69892
13.02	3.69333
13.03	3.69563
13.04	3.69694
13.05	3.69497
13.06	3.69694
13.07	3.70188
13.08	3.69201
13.09	3.69201
13.1	3.69267
13.11	3.6976
13.12	3.69826
13.13	3.70155
13.14	3.69991
13.15	3.69431
13.16	3.69234
13.17	3.69826
13.18	3.69793
13.19	3.693
13.2	3.69629
13.21	3.68971
13.22	3.69365
13.23	3.69431
13.24	3.69464
13.25	3.6953
13.26	3.68477
13.27	3.68773
13.28	3.68543
13.29	3.69497
13.3	3.69004
13.31	3.68938
13.32	3.69037
13.33	3.68938
13.34	3.68609
13.35	3.68675
13.36	3.68773
13.37	3.68806
13.38	3.68938
13.39	3.68313
13.4	3.68412
13.41	3.68773
13.42	3.68642
13.43	3.68247
13.44	3.68806
13.45	3.68971
13.46	3.68806
13.47	3.69201
13.48	3.69102
13.49	3.67951
13.5	3.67918
13.51	3.68412
13.52	3.6805
13.53	3.68477
13.54	3.6805
13.55	3.68115
13.56	3.6805
13.57	3.68543
13.58	3.68543
13.59	3.67984
13.6	3.68412
13.61	3.68313
13.62	3.6851
13.63	3.67688
13.64	3.68181
13.65	3.67194
13.66	3.67556
13.67	3.67951
13.68	3.67984
13.69	3.67458
13.7	3.68313
13.71	3.67754
13.72	3.68642
13.73	3.68576
13.74	3.68181
13.75	3.68115
13.76	3.67754
13.77	3.68083
13.78	3.68181
13.79	3.68181
13.8	3.68017
13.81	3.68181
13.82	3.67918
13.83	3.67523
13.84	3.67392
13.85	3.67754
13.86	3.67688
13.87	3.67194
13.88	3.67786
13.89	3.67458
13.9	3.68346
13.91	3.68083
13.92	3.68017
13.93	3.68181
13.94	3.67523
13.95	3.67819
13.96	3.67688
13.97	3.6726
13.98	3.67523
13.99	3.67951
14	3.67721
14.01	3.67951
14.02	3.67458
14.03	3.67951
14.04	3.68115
14.05	3.68017
14.06	3.6805
14.07	3.67721
14.08	3.67425
14.09	3.67984
14.1	3.6749
14.11	3.67852
14.12	3.6828
14.13	3.67227
14.14	3.67885
14.15	3.68346
14.16	3.67918
14.17	3.67688
14.18	3.67425
14.19	3.67293
14.2	3.66931
14.21	3.66405
14.22	3.67655
14.23	3.67194
14.24	3.6749
14.25	3.66865
14.26	3.67721
14.27	3.67819
14.28	3.67392
14.29	3.6726
14.3	3.67161
14.31	3.67293
14.32	3.67293
14.33	3.67885
14.34	3.668
14.35	3.67918
14.36	3.6703
14.37	3.67721
14.38	3.6726
14.39	3.67556
14.4	3.6749
14.41	3.67425
14.42	3.67161
14.43	3.67622
14.44	3.67523
14.45	3.67161
14.46	3.67161
14.47	3.67622
14.48	3.66767
14.49	3.66931
14.5	3.66339
14.51	3.66207
14.52	3.66504
14.53	3.67063
14.54	3.67096
14.55	3.66767
14.56	3.66372
14.57	3.66701
14.58	3.66931
14.59	3.66273
14.6	3.66701
14.61	3.66504
14.62	3.67425
14.63	3.66898
14.64	3.67293
14.65	3.66635
14.66	3.66635
14.67	3.66471
14.68	3.66536
14.69	3.66701
14.7	3.66438
14.71	3.66734
14.72	3.66109
14.73	3.66635
14.74	3.66668
14.75	3.66471
14.76	3.66273
14.77	3.66142
14.78	3.65977
14.79	3.66339
14.8	3.66207
14.81	3.66504
14.82	3.66109
14.83	3.65879
14.84	3.66471
14.85	3.65714
14.86	3.66602
14.87	3.65582
14.88	3.65911
14.89	3.66504
14.9	3.66142
14.91	3.66306
14.92	3.65813
14.93	3.65977
14.94	3.66306
14.95	3.66043
14.96	3.66339
14.97	3.65846
14.98	3.6578
14.99	3.65681
15	3.66339
15.01	3.66076
15.02	3.668
15.03	3.66767
15.04	3.66076
15.05	3.66602
15.06	3.65977
15.07	3.66602
15.08	3.66207
15.09	3.66339
15.1	3.65944
15.11	3.6578
15.12	3.66306
15.13	3.66635
15.14	3.65911
15.15	3.65056
15.16	3.65846
15.17	3.65484
15.18	3.65385
15.19	3.65681
15.2	3.66372
15.21	3.6624
15.22	3.65944
15.23	3.65944
15.24	3.65681
15.25	3.65944
15.26	3.6578
15.27	3.65911
15.28	3.65155
15.29	3.66175
15.3	3.66504
15.31	3.65451
15.32	3.65648
15.33	3.65879
15.34	3.65911
15.35	3.65221
15.36	3.64957
15.37	3.65319
15.38	3.65681
15.39	3.65023
15.4	3.65517
15.41	3.65484
15.42	3.65582
15.43	3.66273
15.44	3.65385
15.45	3.65221
15.46	3.65911
15.47	3.66175
15.48	3.65879
15.49	3.65319
15.5	3.65747
15.51	3.65582
15.52	3.65582
15.53	3.66273
15.54	3.65879
15.55	3.65122
15.56	3.65319
15.57	3.65681
15.58	3.65352
15.59	3.64892
15.6	3.65681
15.61	3.65286
15.62	3.65418
15.63	3.66273
15.64	3.65714
15.65	3.65352
15.66	3.65188
15.67	3.65221
15.68	3.64661
15.69	3.65385
15.7	3.65221
15.71	3.6555
15.72	3.65418
15.73	3.6499
15.74	3.65582
15.75	3.65484
15.76	3.65451
15.77	3.65879
15.78	3.65418
15.79	3.65089
15.8	3.64826
15.81	3.64563
15.82	3.6476
15.83	3.65023
15.84	3.65451
15.85	3.65484
15.86	3.65056
15.87	3.64793
15.88	3.64892
15.89	3.65385
15.9	3.64727
15.91	3.64267
15.92	3.65122
15.93	3.66207
15.94	3.65681
15.95	3.65254
15.96	3.64694
15.97	3.65155
15.98	3.65517
15.99	3.64661
16	3.64957
16.01	3.65286
16.02	3.64826
16.03	3.65155
16.04	3.65484
16.05	3.65188
16.06	3.65615
16.07	3.64628
16.08	3.643
16.09	3.64365
16.1	3.64661
16.11	3.64332
16.12	3.64036
16.13	3.64694
16.14	3.6499
16.15	3.65221
16.16	3.64267
16.17	3.64201
16.18	3.65122
16.19	3.6476
16.2	3.65254
16.21	3.64003
16.22	3.64398
16.23	3.6555
16.24	3.64694
16.25	3.64793
16.26	3.64497
16.27	3.64464
16.28	3.64365
16.29	3.65056
16.3	3.64957
16.31	3.64661
16.32	3.64694
16.33	3.64563
16.34	3.64267
16.35	3.64365
16.36	3.64957
16.37	3.63938
16.38	3.64793
16.39	3.64628
16.4	3.64826
16.41	3.64596
16.42	3.64661
16.43	3.64332
16.44	3.65023
16.45	3.643
16.46	3.65056
16.47	3.64628
16.48	3.64135
16.49	3.64003
16.5	3.63905
16.51	3.64431
16.52	3.64694
16.53	3.64267
16.54	3.64464
16.55	3.64464
16.56	3.64596
16.57	3.64464
16.58	3.64925
16.59	3.64694
16.6	3.63773
16.61	3.64398
16.62	3.64464
16.63	3.63938
16.64	3.64069
16.65	3.64102
16.66	3.64168
16.67	3.64563
16.68	3.6476
16.69	3.64563
16.7	3.6453
16.71	3.643
16.72	3.64201
16.73	3.64003
16.74	3.64201
16.75	3.64628
16.76	3.64859
16.77	3.64234
16.78	3.63543
16.79	3.64596
16.8	3.65056
16.81	3.64793
16.82	3.64661
16.83	3.65155
16.84	3.64365
16.85	3.643
16.86	3.64069
16.87	3.64464
16.88	3.64431
16.89	3.64497
16.9	3.64694
16.91	3.65681
16.92	3.6476
16.93	3.64365
16.94	3.64793
16.95	3.64957
16.96	3.64563
16.97	3.64628
16.98	3.64694
16.99	3.64727
17	3.64793
17.01	3.64234
17.02	3.64464
17.03	3.65221
17.04	3.64727
17.05	3.64431
17.06	3.64234
17.07	3.64201
17.08	3.64135
17.09	3.63872
17.1	3.64267
17.11	3.63313
17.12	3.64398
17.13	3.64365
17.14	3.6453
17.15	3.64365
17.16	3.643
17.17	3.64168
17.18	3.64431
17.19	3.643
17.2	3.64497
17.21	3.63411
17.22	3.63181
17.23	3.63707
17.24	3.63477
17.25	3.63938
17.26	3.64102
17.27	3.63773
17.28	3.6351
17.29	3.6374
17.3	3.64069
17.31	3.63642
17.32	3.63642
17.33	3.64135
17.34	3.63313
17.35	3.6351
17.36	3.63477
17.37	3.63938
17.38	3.6328
17.39	3.63411
17.4	3.62622
17.41	3.63214
17.42	3.62918
17.43	3.62918
17.44	3.63148
17.45	3.63148
17.46	3.63017
17.47	3.63477
17.48	3.63214
17.49	3.63642
17.5	3.63214
17.51	3.62984
17.52	3.6351
17.53	3.63576
17.54	3.63773
17.55	3.63576
17.56	3.63444
17.57	3.62852
17.58	3.62918
17.59	3.63313
17.6	3.63576
17.61	3.63378
17.62	3.63477
17.63	3.63378
17.64	3.63082
17.65	3.63247
17.66	3.63346
17.67	3.63444
17.68	3.63839
17.69	3.63477
17.7	3.63806
17.71	3.63082
17.72	3.63576
17.73	3.63346
17.74	3.63543
17.75	3.6374
17.76	3.63707
17.77	3.63115
17.78	3.63411
17.79	3.63411
17.8	3.63115
17.81	3.62885
17.82	3.6328
17.83	3.63543
17.84	3.63477
17.85	3.63444
17.86	3.63444
17.87	3.63477
17.88	3.63938
17.89	3.63017
17.9	3.63477
17.91	3.62622
17.92	3.62096
17.93	3.62688
17.94	3.6328
17.95	3.62951
17.96	3.62161
17.97	3.62753
17.98	3.63543
17.99	3.63543
18	3.62885
18.01	3.62589
18.02	3.63181
18.03	3.6305
18.04	3.62786
18.05	3.63115
18.06	3.62984
18.07	3.62128
18.08	3.62655
18.09	3.62753
18.1	3.63181
18.11	3.63181
18.12	3.62655
18.13	3.62786
18.14	3.62688
18.15	3.62885
18.16	3.62655
18.17	3.62622
18.18	3.63017
18.19	3.62918
18.2	3.62655
18.21	3.63247
18.22	3.63411
18.23	3.63017
18.24	3.62688
18.25	3.63247
18.26	3.63346
18.27	3.62852
18.28	3.62523
18.29	3.62589
18.3	3.62885
18.31	3.6249
18.32	3.62819
18.33	3.62589
18.34	3.63247
18.35	3.62951
18.36	3.62457
18.37	3.62589
18.38	3.6249
18.39	3.62786
18.4	3.62655
18.41	3.62918
18.42	3.6249
18.43	3.62063
18.44	3.62523
18.45	3.62688
18.46	3.62457
18.47	3.62424
18.48	3.62194
18.49	3.62819
18.5	3.6305
18.51	3.62885
18.52	3.62293
18.53	3.62392
18.54	3.62984
18.55	3.63082
18.56	3.62951
18.57	3.62688
18.58	3.61997
18.59	3.62424
18.6	3.62457
18.61	3.62852
18.62	3.62392
18.63	3.62326
18.64	3.6226
18.65	3.6351
18.66	3.63017
18.67	3.62293
18.68	3.62852
18.69	3.62392
18.7	3.62063
18.71	3.62227
18.72	3.62786
18.73	3.62523
18.74	3.61602
18.75	3.61964
18.76	3.62424
18.77	3.62589
18.78	3.62885
18.79	3.62457
18.8	3.62885
18.81	3.62359
18.82	3.62293
18.83	3.62556
18.84	3.62161
18.85	3.61997
18.86	3.6249
18.87	3.62523
18.88	3.62556
18.89	3.62885
18.9	3.62622
18.91	3.61832
18.92	3.61635
18.93	3.62063
18.94	3.62293
18.95	3.62918
18.96	3.62885
18.97	3.62293
18.98	3.62194
18.99	3.61964
19	3.61997
19.01	3.61832
19.02	3.61635
19.03	3.62359
19.04	3.62326
19.05	3.62753
19.06	3.62622
19.07	3.62753
19.08	3.62622
19.09	3.62852
19.1	3.62984
19.11	3.62753
19.12	3.62786
19.13	3.62885
19.14	3.62096
19.15	3.62326
19.16	3.62753
19.17	3.62885
19.18	3.61931
19.19	3.62424
19.2	3.62096
19.21	3.61799
19.22	3.62227
19.23	3.62457
19.24	3.62523
19.25	3.61931
19.26	3.61997
19.27	3.6226
19.28	3.61898
19.29	3.62063
19.3	3.62326
19.31	3.62227
19.32	3.61997
19.33	3.62161
19.34	3.6203
19.35	3.61997
19.36	3.62194
19.37	3.61701
19.38	3.62128
19.39	3.61997
19.4	3.6203
19.41	3.6226
19.42	3.62161
19.43	3.61931
19.44	3.61635
19.45	3.61668
19.46	3.61865
19.47	3.61799
19.48	3.62293
19.49	3.62128
19.5	3.62194
19.51	3.61997
19.52	3.61536
19.53	3.61569
19.54	3.61799
19.55	3.61767
19.56	3.61569
19.57	3.61832
19.58	3.62293
19.59	3.62128
19.6	3.6226
19.61	3.61898
19.62	3.6203
19.63	3.61569
19.64	3.61997
19.65	3.61865
19.66	3.61799
19.67	3.61964
19.68	3.61931
19.69	3.61865
19.7	3.61767
19.71	3.61701
19.72	3.61767
19.73	3.61767
19.74	3.61306
19.75	3.61865
19.76	3.62359
19.77	3.61997
19.78	3.62194
19.79	3.62128
19.8	3.62194
19.81	3.61931
19.82	3.61405
19.83	3.61207
19.84	3.61701
19.85	3.61997
19.86	3.61931
19.87	3.62359
19.88	3.61931
19.89	3.61602
19.9	3.61799
19.91	3.61898
19.92	3.6203
19.93	3.61767
19.94	3.61898
19.95	3.61536
19.96	3.61799
19.97	3.61865
19.98	3.61734
19.99	3.61471
20	3.61372
20.01	3.61438
20.02	3.62457
20.03	3.62161
20.04	3.61931
20.05	3.61734
20.06	3.61668
20.07	3.61832
20.08	3.61734
20.09	3.61536
20.1	3.61536
20.11	3.61536
20.12	3.61799
20.13	3.6226
20.14	3.61832
20.15	3.61536
20.16	3.61799
20.17	3.61635
20.18	3.61273
20.19	3.61339
20.2	3.61635
20.21	3.61405
20.22	3.61931
20.23	3.62293
20.24	3.62128
20.25	3.61668
20.26	3.61799
20.27	3.61635
20.28	3.61536
20.29	3.61142
20.3	3.61832
20.31	3.61701
20.32	3.61997
20.33	3.62096
20.34	3.61767
20.35	3.6203
20.36	3.61832
20.37	3.62096
20.38	3.61799
20.39	3.61372
20.4	3.6101
20.41	3.6124
20.42	3.61273
20.43	3.61536
20.44	3.61174
20.45	3.61438
20.46	3.61734
20.47	3.61536
20.48	3.61668
20.49	3.6203
20.5	3.61635
20.51	3.61668
20.52	3.61372
20.53	3.61503
20.54	3.61142
20.55	3.60681
20.56	3.61405
20.57	3.61306
20.58	3.61076
20.59	3.61602
20.6	3.61734
20.61	3.61076
20.62	3.61503
20.63	3.61602
20.64	3.61865
20.65	3.62293
20.66	3.61997
20.67	3.61339
20.68	3.61339
20.69	3.62392
20.7	3.6203
20.71	3.61405
20.72	3.61372
20.73	3.61503
20.74	3.62721
20.75	3.61767
20.76	3.61832
20.77	3.6226
20.78	3.61865
20.79	3.61405
20.8	3.61405
20.81	3.6226
20.82	3.61767
20.83	3.61635
20.84	3.61799
20.85	3.62128
20.86	3.61372
20.87	3.61898
20.88	3.61503
20.89	3.6124
20.9	3.61043
20.91	3.61273
20.92	3.61142
20.93	3.61339
20.94	3.61438
20.95	3.6101
20.96	3.61339
20.97	3.61503
20.98	3.61931
20.99	3.60944
21	3.61076
21.01	3.61602
21.02	3.61207
21.03	3.61273
21.04	3.61174
21.05	3.61569
21.06	3.60615
21.07	3.60385
21.08	3.61076
21.09	3.60977
21.1	3.61142
21.11	3.60977
21.12	3.6124
21.13	3.61174
21.14	3.61076
21.15	3.60681
21.16	3.60648
21.17	3.60813
21.18	3.60813
21.19	3.61602
21.2	3.61273
21.21	3.61339
21.22	3.61207
21.23	3.61109
21.24	3.6101
21.25	3.60714
21.26	3.60747
21.27	3.60845
21.28	3.61043
21.29	3.60681
21.3	3.6124
21.31	3.60977
21.32	3.60944
21.33	3.61306
21.34	3.61142
21.35	3.60845
21.36	3.6101
21.37	3.61734
21.38	3.6078
21.39	3.60681
21.4	3.60286
21.41	3.61536
21.42	3.61536
21.43	3.61174
21.44	3.59924
21.45	3.60582
21.46	3.61043
21.47	3.6124
21.48	3.60911
21.49	3.60582
21.5	3.61142
21.51	3.61076
21.52	3.60747
21.53	3.6101
21.54	3.6101
21.55	3.61076
21.56	3.61043
21.57	3.61142
21.58	3.61306
21.59	3.60747
21.6	3.61306
21.61	3.60648
21.62	3.60681
21.63	3.61471
21.64	3.61503
21.65	3.60681
21.66	3.61174
21.67	3.61076
21.68	3.60878
21.69	3.6124
21.7	3.6124
21.71	3.6124
21.72	3.61109
21.73	3.60451
21.74	3.61438
21.75	3.61799
21.76	3.61306
21.77	3.60878
21.78	3.61668
21.79	3.61569
21.8	3.61043
21.81	3.60977
21.82	3.60813
21.83	3.61076
21.84	3.60911
21.85	3.60517
21.86	3.6078
21.87	3.6078
21.88	3.60911
21.89	3.61701
21.9	3.61372
21.91	3.61109
21.92	3.60878
21.93	3.60878
21.94	3.60878
21.95	3.60352
21.96	3.61339
21.97	3.61405
21.98	3.61043
21.99	3.60253
22	3.60582
22.01	3.60878
22.02	3.60681
22.03	3.60714
22.04	3.60681
22.05	3.61109
22.06	3.60813
22.07	3.60681
22.08	3.61076
22.09	3.60484
22.1	3.60911
22.11	3.60878
22.12	3.60681
22.13	3.60813
22.14	3.60319
22.15	3.60681
22.16	3.61273
22.17	3.61174
22.18	3.61142
22.19	3.61207
22.2	3.61372
22.21	3.61174
22.22	3.61174
22.23	3.61076
22.24	3.61174
22.25	3.6078
22.26	3.61174
22.27	3.60845
22.28	3.60484
22.29	3.60484
22.3	3.60747
22.31	3.6124
22.32	3.61339
22.33	3.60418
22.34	3.6022
22.35	3.60582
22.36	3.60714
22.37	3.60385
22.38	3.60845
22.39	3.60385
22.4	3.59892
22.41	3.60352
22.42	3.60122
22.43	3.60714
22.44	3.60155
22.45	3.59826
22.46	3.60155
22.47	3.60286
22.48	3.60319
22.49	3.59859
22.5	3.6022
22.51	3.59892
22.52	3.5999
22.53	3.60319
22.54	3.60484
22.55	3.60714
22.56	3.59826
22.57	3.60155
22.58	3.5999
22.59	3.60122
22.6	3.60418
22.61	3.60484
22.62	3.59595
22.63	3.59694
22.64	3.60188
22.65	3.60188
22.66	3.59859
22.67	3.59892
22.68	3.60155
22.69	3.59497
22.7	3.59497
22.71	3.59431
22.72	3.59924
22.73	3.59957
22.74	3.59957
22.75	3.59694
22.76	3.60122
22.77	3.5976
22.78	3.60648
22.79	3.59826
22.8	3.59332
22.81	3.5976
22.82	3.60188
22.83	3.59859
22.84	3.59234
22.85	3.59497
22.86	3.59859
22.87	3.59628
22.88	3.60023
22.89	3.60385
22.9	3.60582
22.91	3.59826
22.92	3.59793
22.93	3.60056
22.94	3.60319
22.95	3.59957
22.96	3.60385
22.97	3.5999
22.98	3.59661
22.99	3.59924
23	3.5999
23.01	3.59826
23.02	3.59892
23.03	3.59069
23.04	3.59661
23.05	3.60253
23.06	3.59628
23.07	3.59628
23.08	3.5999
23.09	3.59628
23.1	3.60253
23.11	3.60484
23.12	3.60056
23.13	3.59727
23.14	3.59957
23.15	3.6022
23.16	3.59859
23.17	3.59859
23.18	3.60056
23.19	3.59826
23.2	3.60089
23.21	3.60319
23.22	3.59892
23.23	3.60056
23.24	3.59727
23.25	3.59727
23.26	3.60319
23.27	3.59793
23.28	3.59727
23.29	3.59497
23.3	3.60122
23.31	3.60319
23.32	3.59694
23.33	3.59201
23.34	3.59892
23.35	3.59826
23.36	3.59694
23.37	3.59826
23.38	3.58839
23.39	3.59102
23.4	3.59201
23.41	3.59628
23.42	3.59694
23.43	3.59859
23.44	3.59563
23.45	3.60385
23.46	3.59398
23.47	3.5999
23.48	3.6022
23.49	3.5999
23.5	3.60089
23.51	3.59892
23.52	3.59563
23.53	3.59661
23.54	3.60089
23.55	3.5953
23.56	3.60089
23.57	3.60089
23.58	3.5999
23.59	3.59826
23.6	3.59332
23.61	3.59793
23.62	3.5976
23.63	3.59299
23.64	3.59826
23.65	3.5953
23.66	3.59859
23.67	3.5976
23.68	3.60286
23.69	3.59826
23.7	3.59727
23.71	3.59431
23.72	3.59727
23.73	3.59332
23.74	3.59431
23.75	3.5953
23.76	3.59464
23.77	3.59168
23.78	3.60023
23.79	3.60122
23.8	3.5953
23.81	3.60056
23.82	3.59793
23.83	3.59957
23.84	3.59464
23.85	3.59957
23.86	3.59464
23.87	3.59661
23.88	3.59563
23.89	3.59431
23.9	3.59497
23.91	3.60385
23.92	3.59497
23.93	3.59497
23.94	3.59793
23.95	3.59332
23.96	3.59332
23.97	3.59299
23.98	3.59957
23.99	3.60089
24	3.5976
24.01	3.59497
24.02	3.59135
24.03	3.60056
24.04	3.59859
24.05	3.59266
24.06	3.59497
24.07	3.59497
24.08	3.5999
24.09	3.59727
24.1	3.59234
24.11	3.59332
24.12	3.59957
24.13	3.6022
24.14	3.60023
24.15	3.6022
24.16	3.5976
24.17	3.60253
24.18	3.59003
24.19	3.59365
24.2	3.59727
24.21	3.60319
24.22	3.59595
24.23	3.59497
24.24	3.5953
24.25	3.59069
24.26	3.59135
24.27	3.59859
24.28	3.5953
24.29	3.58872
24.3	3.59036
24.31	3.59332
24.32	3.59201
24.33	3.59036
24.34	3.59069
24.35	3.59036
24.36	3.59563
24.37	3.59727
24.38	3.58839
24.39	3.59332
24.4	3.59332
24.41	3.58641
24.42	3.5897
24.43	3.59595
24.44	3.5999
24.45	3.59398
24.46	3.59595
24.47	3.60023
24.48	3.59826
24.49	3.5897
24.5	3.59365
24.51	3.59266
24.52	3.59234
24.53	3.59003
24.54	3.59266
24.55	3.5953
24.56	3.5897
24.57	3.59036
24.58	3.59826
24.59	3.59628
24.6	3.59234
24.61	3.59168
24.62	3.58872
24.63	3.59102
24.64	3.59497
24.65	3.59266
24.66	3.59135
24.67	3.59332
24.68	3.59563
24.69	3.59365
24.7	3.59595
24.71	3.59826
24.72	3.59793
24.73	3.59234
24.74	3.59694
24.75	3.59497
24.76	3.59135
24.77	3.58938
24.78	3.59431
24.79	3.59299
24.8	3.59464
24.81	3.59957
24.82	3.58872
24.83	3.59036
24.84	3.60122
24.85	3.59793
24.86	3.59168
24.87	3.5897
24.88	3.59628
24.89	3.59266
24.9	3.60319
24.91	3.5976
24.92	3.59431
24.93	3.59892
24.94	3.59332
24.95	3.59036
24.96	3.58707
24.97	3.59135
24.98	3.59563
24.99	3.59563
25	3.59332
25.01	3.59563
25.02	3.59793
25.03	3.5953
25.04	3.59003
25.05	3.58905
25.06	3.59431
25.07	3.59135
25.08	3.58938
25.09	3.59168
25.1	3.59497
25.11	3.59036
25.12	3.58181
25.13	3.58839
25.14	3.59464
25.15	3.59003
25.16	3.59332
25.17	3.59234
25.18	3.58641
25.19	3.58214
25.2	3.59036
25.21	3.58938
25.22	3.59332
25.23	3.58576
25.24	3.5851
25.25	3.58313
25.26	3.58641
25.27	3.5976
25.28	3.59398
25.29	3.5897
25.3	3.59069
25.31	3.58872
25.32	3.58674
25.33	3.59102
25.34	3.58313
25.35	3.58707
25.36	3.58641
25.37	3.59266
25.38	3.58839
25.39	3.58674
25.4	3.58378
25.41	3.58905
25.42	3.58707
25.43	3.59234
25.44	3.58938
25.45	3.59793
25.46	3.58938
25.47	3.58773
25.48	3.59332
25.49	3.59069
25.5	3.58938
25.51	3.5953
25.52	3.59464
25.53	3.59036
25.54	3.59102
25.55	3.59365
25.56	3.5897
25.57	3.59299
25.58	3.59266
25.59	3.59332
25.6	3.59102
25.61	3.59036
25.62	3.59694
25.63	3.59365
25.64	3.59201
25.65	3.59069
25.66	3.59266
25.67	3.59069
25.68	3.59036
25.69	3.59398
25.7	3.58839
25.71	3.59266
25.72	3.59003
25.73	3.59135
25.74	3.59135
25.75	3.59135
25.76	3.5874
25.77	3.58674
25.78	3.58609
25.79	3.5874
25.8	3.58543
25.81	3.58773
25.82	3.58938
25.83	3.57885
25.84	3.58345
25.85	3.59266
25.86	3.58477
25.87	3.59036
25.88	3.58477
25.89	3.58378
25.9	3.59102
25.91	3.58444
25.92	3.58345
25.93	3.58082
25.94	3.57885
25.95	3.58016
25.96	3.58115
25.97	3.58609
25.98	3.58543
25.99	3.58839
26	3.58609
26.01	3.58641
26.02	3.58707
26.03	3.58938
26.04	3.58576
26.05	3.58444
26.06	3.58345
26.07	3.58049
26.08	3.58707
26.09	3.5874
26.1	3.58378
26.11	3.58477
26.12	3.58543
26.13	3.58444
26.14	3.58674
26.15	3.58609
26.16	3.58345
26.17	3.58773
26.18	3.58839
26.19	3.58641
26.2	3.58938
26.21	3.58411
26.22	3.58543
26.23	3.59036
26.24	3.58938
26.25	3.58444
26.26	3.57951
26.27	3.58641
26.28	3.58576
26.29	3.5851
26.3	3.58938
26.31	3.58378
26.32	3.58247
26.33	3.58313
26.34	3.58477
26.35	3.58313
26.36	3.58082
26.37	3.58477
26.38	3.58543
26.39	3.58839
26.4	3.5874
26.41	3.58378
26.42	3.58674
26.43	3.58674
26.44	3.59234
26.45	3.59168
26.46	3.58905
26.47	3.58576
26.48	3.58411
26.49	3.58576
26.5	3.58345
26.51	3.58378
26.52	3.58214
26.53	3.57852
26.54	3.58411
26.55	3.58477
26.56	3.58543
26.57	3.58411
26.58	3.58674
26.59	3.58214
26.6	3.58345
26.61	3.58444
26.62	3.58345
26.63	3.58543
26.64	3.58674
26.65	3.58674
26.66	3.57918
26.67	3.57885
26.68	3.58839
26.69	3.58641
26.7	3.59036
26.71	3.58806
26.72	3.5851
26.73	3.58247
26.74	3.58444
26.75	3.58674
26.76	3.5828
26.77	3.58049
26.78	3.57786
26.79	3.59135
26.8	3.5874
26.81	3.58345
26.82	3.58345
26.83	3.5828
26.84	3.58313
26.85	3.58707
26.86	3.5828
26.87	3.58444
26.88	3.58115
26.89	3.58016
26.9	3.58115
26.91	3.58378
26.92	3.58345
26.93	3.58641
26.94	3.58806
26.95	3.58378
26.96	3.58345
26.97	3.58345
26.98	3.58115
26.99	3.58148
27	3.57786
27.01	3.57951
27.02	3.57753
27.03	3.58609
27.04	3.57786
27.05	3.58181
27.06	3.58082
27.07	3.57589
27.08	3.57687
27.09	3.58411
27.1	3.58543
27.11	3.58148
27.12	3.58345
27.13	3.58345
27.14	3.58872
27.15	3.58214
27.16	3.57885
27.17	3.57424
27.18	3.57556
27.19	3.5851
27.2	3.58247
27.21	3.57885
27.22	3.57293
27.23	3.57852
27.24	3.58148
27.25	3.57852
27.26	3.57984
27.27	3.57655
27.28	3.57391
27.29	3.57786
27.3	3.57589
27.31	3.58214
27.32	3.5772
27.33	3.58247
27.34	3.57326
27.35	3.57655
27.36	3.57687
27.37	3.58773
27.38	3.58543
27.39	3.57984
27.4	3.57753
27.41	3.57687
27.42	3.58082
27.43	3.58148
27.44	3.58411
27.45	3.57918
27.46	3.58049
27.47	3.57326
27.48	3.57161
27.49	3.57819
27.5	3.58082
27.51	3.57984
27.52	3.57786
27.53	3.57786
27.54	3.57457
27.55	3.5749
27.56	3.57885
27.57	3.58016
27.58	3.57852
27.59	3.57523
27.6	3.57819
27.61	3.57885
27.62	3.58181
27.63	3.57819
27.64	3.57753
27.65	3.57852
27.66	3.58148
27.67	3.57951
27.68	3.57753
27.69	3.58674
27.7	3.58148
27.71	3.58148
27.72	3.57984
27.73	3.57984
27.74	3.57885
27.75	3.58378
27.76	3.57951
27.77	3.58082
27.78	3.58674
27.79	3.58707
27.8	3.58082
27.81	3.58609
27.82	3.58148
27.83	3.57885
27.84	3.58148
27.85	3.58181
27.86	3.58674
27.87	3.57556
27.88	3.58181
27.89	3.58641
27.9	3.58345
27.91	3.58345
27.92	3.58115
27.93	3.58345
27.94	3.57918
27.95	3.58345
27.96	3.58345
27.97	3.57556
27.98	3.57359
27.99	3.57852
28	3.57128
28.01	3.57951
28.02	3.58313
28.03	3.58313
28.04	3.58016
28.05	3.57391
28.06	3.57293
28.07	3.57359
28.08	3.57457
28.09	3.57556
28.1	3.57786
28.11	3.57687
28.12	3.57885
28.13	3.57918
28.14	3.56997
28.15	3.57885
28.16	3.5749
28.17	3.57753
28.18	3.57293
28.19	3.57951
28.2	3.57391
28.21	3.57622
28.22	3.57885
28.23	3.57819
28.24	3.57885
28.25	3.58181
28.26	3.57424
28.27	3.57424
28.28	3.57161
28.29	3.5726
28.3	3.5772
28.31	3.57556
28.32	3.56931
28.33	3.57457
28.34	3.57655
28.35	3.57227
28.36	3.57753
28.37	3.57359
28.38	3.57424
28.39	3.57753
28.4	3.56701
28.41	3.57786
28.42	3.5828
28.43	3.57687
28.44	3.57951
28.45	3.57753
28.46	3.57786
28.47	3.57951
28.48	3.57589
28.49	3.58148
28.5	3.58082
28.51	3.57786
28.52	3.57852
28.53	3.58016
28.54	3.5772
28.55	3.5851
28.56	3.57687
28.57	3.57753
28.58	3.57951
28.59	3.58181
28.6	3.57984
28.61	3.58049
28.62	3.58214
28.63	3.57687
28.64	3.57951
28.65	3.58082
28.66	3.57918
28.67	3.58345
28.68	3.58543
28.69	3.58444
28.7	3.59003
28.71	3.58477
28.72	3.57984
28.73	3.57951
28.74	3.58313
28.75	3.58444
28.76	3.58378
28.77	3.58082
28.78	3.58345
28.79	3.57622
28.8	3.57951
28.81	3.57622
28.82	3.5828
28.83	3.58313
28.84	3.57918
28.85	3.57622
28.86	3.57852
28.87	3.57589
28.88	3.57622
28.89	3.58016
28.9	3.57391
28.91	3.57687
28.92	3.57359
28.93	3.57984
28.94	3.5772
28.95	3.57589
28.96	3.57293
28.97	3.57655
28.98	3.57457
28.99	3.57687
29	3.57556
29.01	3.5749
29.02	3.57786
29.03	3.57819
29.04	3.5749
29.05	3.57819
29.06	3.57424
29.07	3.5749
29.08	3.57359
29.09	3.57161
29.1	3.5726
29.11	3.57457
29.12	3.57293
29.13	3.57523
29.14	3.5749
29.15	3.57293
29.16	3.56668
29.17	3.57194
29.18	3.57753
29.19	3.57655
29.2	3.57523
29.21	3.57786
29.22	3.56701
29.23	3.58049
29.24	3.58016
29.25	3.57523
29.26	3.56997
29.27	3.57359
29.28	3.56734
29.29	3.57424
29.3	3.57359
29.31	3.57622
29.32	3.57589
29.33	3.5703
29.34	3.5749
29.35	3.57556
29.36	3.57457
29.37	3.5726
29.38	3.57852
29.39	3.57326
29.4	3.57984
29.41	3.57359
29.42	3.57128
29.43	3.57293
29.44	3.57359
29.45	3.56734
29.46	3.57293
29.47	3.57293
29.48	3.57227
29.49	3.56997
29.5	3.57326
29.51	3.57128
29.52	3.57359
29.53	3.57227
29.54	3.56898
29.55	3.5703
29.56	3.56832
29.57	3.57095
29.58	3.56964
29.59	3.57194
29.6	3.57885
29.61	3.57885
29.62	3.56997
29.63	3.56602
29.64	3.57227
29.65	3.57095
29.66	3.57457
29.67	3.57359
29.68	3.5726
29.69	3.57391
29.7	3.57622
29.71	3.57687
29.72	3.57194
29.73	3.56701
29.74	3.56766
29.75	3.5772
29.76	3.57523
29.77	3.57457
29.78	3.57194
29.79	3.57062
29.8	3.56931
29.81	3.56898
29.82	3.57359
29.83	3.57161
29.84	3.56931
29.85	3.56405
29.86	3.5749
29.87	3.56898
29.88	3.57062
29.89	3.56766
29.9	3.56964
29.91	3.56964
29.92	3.57227
29.93	3.57984
29.94	3.5726
29.95	3.56997
29.96	3.56898
29.97	3.57293
29.98	3.56997
29.99	3.56964
30	3.57194
