"BIO-KINE ASCII FILE"
"_COMMENT"	"MOS-500 Spectrometer"
"_COMMENT"	"Kinetics measurement"
"_COMMENT"	"Y Unit : Volt,  X Unit : s"
"_COMMENT"	"Excitation wavelength : 380 nm"
"_COMMENT"	"Fentes bandwidth =  1 nm"
"_COMMENT"	"HV= 1000V"
"_COMMENT"	"Timebase  1 =  .01 s   5001 pts"
"_SFM"	"SFM-400 /S  Advanced mode"
"_SFM"	"Ratio : S1: 2.5, S2: 0, S3: 0, S4: 1"
"_SFM"	"Content : S1: , S2: , S3: , S4:"
"_SFM"	"Concentration : S1: , S2: , S3: , S4:"
"_SFM"	"Total volume : 209 µl  Flow : 3.5 mL/s"
"_SFM"	"Acquisition start :  10 ms before stop"
"_SFM"	"cuve=FC-15, s1=10 ml , s2=10 ml , s3=10 ml , s4=1.9 ml"
"_UNITX"	"s"
"_UNITY"	"Volt"
"_DELTAX"	0
"_DATA"
1e-300	2.00413
0.01	2.03669
0.02	2.0538
0.03	2.0788
0.04	2.08637
0.05	2.0811
0.06	2.064
0.07	2.09097
0.08	2.10248
0.09	2.11367
0.1	2.13242
0.11	2.1038
0.12	2.10084
0.13	2.10512
0.14	2.14031
0.15	2.139
0.16	2.12518
0.17	2.12946
0.18	2.11235
0.19	2.10183
0.2	2.14624
0.21	2.15578
0.22	2.13604
0.23	2.11005
0.24	2.13702
0.25	2.13275
0.26	2.11498
0.27	2.13735
0.28	2.12781
0.29	2.12189
0.3	2.11663
0.31	2.11268
0.32	2.11104
0.33	2.13143
0.34	2.114
0.35	2.14031
0.36	2.12946
0.37	2.14591
0.38	2.14788
0.39	2.10873
0.4	2.11367
0.41	2.12255
0.42	2.10775
0.43	2.10544
0.44	2.12485
0.45	2.13933
0.46	2.10808
0.47	2.14821
0.48	2.13999
0.49	2.13834
0.5	2.12814
0.51	2.11301
0.52	2.12189
0.53	2.13176
0.54	2.12781
0.55	2.14097
0.56	2.1163
0.57	2.13045
0.58	2.14887
0.59	2.13604
0.6	2.12255
0.61	2.11202
0.62	2.14492
0.63	2.12452
0.64	2.14295
0.65	2.15874
0.66	2.12748
0.67	2.11202
0.68	2.13275
0.69	2.14492
0.7	2.12485
0.71	2.14295
0.72	2.14163
0.73	2.13242
0.74	2.12683
0.75	2.13308
0.76	2.13637
0.77	2.14031
0.78	2.13702
0.79	2.12255
0.8	2.15084
0.81	2.12058
0.82	2.12683
0.83	2.13341
0.84	2.1186
0.85	2.11795
0.86	2.10841
0.87	2.11367
0.88	2.12222
0.89	2.14229
0.9	2.12814
0.91	2.13702
0.92	2.15578
0.93	2.12387
0.94	2.12551
0.95	2.11071
0.96	2.13308
0.97	2.13209
0.98	2.09722
0.99	2.14327
1	2.12222
1.01	2.1242
1.02	2.1311
1.03	2.12781
1.04	2.11202
1.05	2.12387
1.06	2.12156
1.07	2.14755
1.08	2.11729
1.09	2.09887
1.1	2.12683
1.11	2.14953
1.12	2.12913
1.13	2.13341
1.14	2.14525
1.15	2.15117
1.16	2.16301
1.17	2.13999
1.18	2.14624
1.19	2.10544
1.2	2.13735
1.21	2.14821
1.22	2.1311
1.23	2.12222
1.24	2.12156
1.25	2.12156
1.26	2.09952
1.27	2.11893
1.28	2.12189
1.29	2.11992
1.3	2.14722
1.31	2.13505
1.32	2.12485
1.33	2.12156
1.34	2.11137
1.35	2.12748
1.36	2.11992
1.37	2.11466
1.38	2.14985
1.39	2.1561
1.4	2.11466
1.41	2.11202
1.42	2.13472
1.43	2.14656
1.44	2.14985
1.45	2.15183
1.46	2.13604
1.47	2.13735
1.48	2.1288
1.49	2.13604
1.5	2.13999
1.51	2.13999
1.52	2.14591
1.53	2.12222
1.54	2.1311
1.55	2.15578
1.56	2.1413
1.57	2.13012
1.58	2.13472
1.59	2.10512
1.6	2.13308
1.61	2.12584
1.62	2.11005
1.63	2.14558
1.64	2.13834
1.65	2.14229
1.66	2.10643
1.67	2.1265
1.68	2.08702
1.69	2.13406
1.7	2.13439
1.71	2.15643
1.72	2.17091
1.73	2.1413
1.74	2.13867
1.75	2.11367
1.76	2.11169
1.77	2.15018
1.78	2.13735
1.79	2.14031
1.8	2.14163
1.81	2.12814
1.82	2.14492
1.83	2.11893
1.84	2.13374
1.85	2.12321
1.86	2.16203
1.87	2.13439
1.88	2.13933
1.89	2.13966
1.9	2.14295
1.91	2.13143
1.92	2.12748
1.93	2.11235
1.94	2.13242
1.95	2.1186
1.96	2.14295
1.97	2.13341
1.98	2.0959
1.99	2.11762
2	2.1061
2.01	2.11235
2.02	2.10281
2.03	2.0959
2.04	2.10446
2.05	2.12485
2.06	2.13735
2.07	2.11959
2.08	2.11597
2.09	2.11466
2.1	2.12814
2.11	2.12913
2.12	2.10479
2.13	2.12058
2.14	2.11959
2.15	2.1186
2.16	2.089
2.17	2.1492
2.18	2.14393
2.19	2.11104
2.2	2.09294
2.21	2.11433
2.22	2.09393
2.23	2.12058
2.24	2.16532
2.25	2.16367
2.26	2.15775
2.27	2.1163
2.28	2.1288
2.29	2.14295
2.3	2.15117
2.31	2.12683
2.32	2.14097
2.33	2.13374
2.34	2.12189
2.35	2.11992
2.36	2.10676
2.37	2.13275
2.38	2.11498
2.39	2.13702
2.4	2.14887
2.41	2.14492
2.42	2.12781
2.43	2.12485
2.44	2.14163
2.45	2.10939
2.46	2.12979
2.47	2.14327
2.48	2.1265
2.49	2.11104
2.5	2.14163
2.51	2.16433
2.52	2.12288
2.53	2.09755
2.54	2.10972
2.55	2.11235
2.56	2.12518
2.57	2.13999
2.58	2.13341
2.59	2.12485
2.6	2.13143
2.61	2.12979
2.62	2.1413
2.63	2.1163
2.64	2.10775
2.65	2.13604
2.66	2.13999
2.67	2.14031
2.68	2.13077
2.69	2.12979
2.7	2.12485
2.71	2.10972
2.72	2.1367
2.73	2.12123
2.74	2.14196
2.75	2.1367
2.76	2.14229
2.77	2.14788
2.78	2.12748
2.79	2.11498
2.8	2.13768
2.81	2.14624
2.82	2.1492
2.83	2.11268
2.84	2.13242
2.85	2.14722
2.86	2.13077
2.87	2.12485
2.88	2.17485
2.89	2.13472
2.9	2.12584
2.91	2.1242
2.92	2.14229
2.93	2.14591
2.94	2.11071
2.95	2.1288
2.96	2.14327
2.97	2.1367
2.98	2.10446
2.99	2.11038
3	2.13374
3.01	2.13637
3.02	2.11762
3.03	2.13867
3.04	2.1538
3.05	2.16367
3.06	2.12255
3.07	2.13472
3.08	2.12255
3.09	2.09887
3.1	2.12387
3.11	2.11564
3.12	2.10446
3.13	2.13702
3.14	2.12551
3.15	2.13012
3.16	2.12058
3.17	2.12091
3.18	2.14558
3.19	2.13143
3.2	2.11301
3.21	2.13637
3.22	2.12222
3.23	2.13999
3.24	2.12255
3.25	2.13077
3.26	2.1061
3.27	2.13275
3.28	2.10906
3.29	2.14295
3.3	2.13242
3.31	2.11795
3.32	2.11827
3.33	2.13966
3.34	2.12452
3.35	2.12716
3.36	2.15742
3.37	2.15676
3.38	2.1492
3.39	2.14163
3.4	2.13768
3.41	2.114
3.42	2.11268
3.43	2.12518
3.44	2.12748
3.45	2.13834
3.46	2.14295
3.47	2.11729
3.48	2.10709
3.49	2.11367
3.5	2.1242
3.51	2.11301
3.52	2.15906
3.53	2.18078
3.54	2.14459
3.55	2.13077
3.56	2.11696
3.57	2.11762
3.58	2.14854
3.59	2.14064
3.6	2.1663
3.61	2.1311
3.62	2.09426
3.63	2.16038
3.64	2.12913
3.65	2.14262
3.66	2.15874
3.67	2.14492
3.68	2.12913
3.69	2.10808
3.7	2.10577
3.71	2.12716
3.72	2.14097
3.73	2.13966
3.74	2.12716
3.75	2.12617
3.76	2.12518
3.77	2.12781
3.78	2.12156
3.79	2.13735
3.8	2.11795
3.81	2.13374
3.82	2.13571
3.83	2.1242
3.84	2.13045
3.85	2.14031
3.86	2.1311
3.87	2.10281
3.88	2.1163
3.89	2.1265
3.9	2.11992
3.91	2.12189
3.92	2.13308
3.93	2.13308
3.94	2.17058
3.95	2.14262
3.96	2.114
3.97	2.11071
3.98	2.11466
3.99	2.13966
4	2.12156
4.01	2.11762
4.02	2.09854
4.03	2.11104
4.04	2.12058
4.05	2.13571
4.06	2.15018
4.07	2.13933
4.08	2.12025
4.09	2.12025
4.1	2.15249
4.11	2.11893
4.12	2.12979
4.13	2.11498
4.14	2.14064
4.15	2.13143
4.16	2.15874
4.17	2.1413
4.18	2.16038
4.19	2.14097
4.2	2.13933
4.21	2.12025
4.22	2.11564
4.23	2.12946
4.24	2.12584
4.25	2.12913
4.26	2.10906
4.27	2.11301
4.28	2.12058
4.29	2.15117
4.3	2.14755
4.31	2.12551
4.32	2.12913
4.33	2.13045
4.34	2.15051
4.35	2.12321
4.36	2.13604
4.37	2.14953
4.38	2.13933
4.39	2.14821
4.4	2.12913
4.41	2.14558
4.42	2.14196
4.43	2.14722
4.44	2.10709
4.45	2.13341
4.46	2.13834
4.47	2.11498
4.48	2.10676
4.49	2.13571
4.5	2.13143
4.51	2.13077
4.52	2.11959
4.53	2.11795
4.54	2.13834
4.55	2.11696
4.56	2.10117
4.57	2.10216
4.58	2.1163
4.59	2.114
4.6	2.11992
4.61	2.11564
4.62	2.13242
4.63	2.12123
4.64	2.13308
4.65	2.13999
4.66	2.15676
4.67	2.11498
4.68	2.12716
4.69	2.12617
4.7	2.13801
4.71	2.14821
4.72	2.13045
4.73	2.17321
4.74	2.1436
4.75	2.12518
4.76	2.10841
4.77	2.10972
4.78	2.1163
4.79	2.10841
4.8	2.12025
4.81	2.14492
4.82	2.13143
4.83	2.11104
4.84	2.10183
4.85	2.10512
4.86	2.10084
4.87	2.10018
4.88	2.12025
4.89	2.13966
4.9	2.15545
4.91	2.13439
4.92	2.11104
4.93	2.11992
4.94	2.13867
4.95	2.12683
4.96	2.12452
4.97	2.13867
4.98	2.12058
4.99	2.11038
5	2.12485
5.01	2.12946
5.02	2.13834
5.03	2.10018
5.04	2.11038
5.05	2.114
5.06	2.12387
5.07	2.14262
5.08	2.14031
5.09	2.13209
5.1	2.1367
5.11	2.11729
5.12	2.12025
5.13	2.13472
5.14	2.12123
5.15	2.11959
5.16	2.11926
5.17	2.11597
5.18	2.1163
5.19	2.1163
5.2	2.13735
5.21	2.13143
5.22	2.1561
5.23	2.10479
5.24	2.10216
5.25	2.11926
5.26	2.13439
5.27	2.1367
5.28	2.13045
5.29	2.13143
5.3	2.12946
5.31	2.13275
5.32	2.13308
5.33	2.11795
5.34	2.12979
5.35	2.11663
5.36	2.14393
5.37	2.12452
5.38	2.13439
5.39	2.12518
5.4	2.1538
5.41	2.13045
5.42	2.13505
5.43	2.14755
5.44	2.1436
5.45	2.14788
5.46	2.1742
5.47	2.14492
5.48	2.14755
5.49	2.15874
5.5	2.1436
5.51	2.12387
5.52	2.11104
5.53	2.12485
5.54	2.1367
5.55	2.13439
5.56	2.11696
5.57	2.11597
5.58	2.13439
5.59	2.14525
5.6	2.14459
5.61	2.1061
5.62	2.12617
5.63	2.13275
5.64	2.13933
5.65	2.1515
5.66	2.10808
5.67	2.12584
5.68	2.12748
5.69	2.13999
5.7	2.1242
5.71	2.14426
5.72	2.14031
5.73	2.14262
5.74	2.12156
5.75	2.10643
5.76	2.1163
5.77	2.1538
5.78	2.13801
5.79	2.11729
5.8	2.09426
5.81	2.11433
5.82	2.10972
5.83	2.10216
5.84	2.13571
5.85	2.14755
5.86	2.12716
5.87	2.12946
5.88	2.1265
5.89	2.1538
5.9	2.11795
5.91	2.12748
5.92	2.09919
5.93	2.11202
5.94	2.11367
5.95	2.12979
5.96	2.12452
5.97	2.12354
5.98	2.11762
5.99	2.12288
6	2.11433
6.01	2.1288
6.02	2.12091
6.03	2.11071
6.04	2.12584
6.05	2.09656
6.06	2.11597
6.07	2.14031
6.08	2.13406
6.09	2.14163
6.1	2.10577
6.11	2.11367
6.12	2.14196
6.13	2.15281
6.14	2.13538
6.15	2.12387
6.16	2.10906
6.17	2.11992
6.18	2.11466
6.19	2.12847
6.2	2.13374
6.21	2.1242
6.22	2.12814
6.23	2.11137
6.24	2.14755
6.25	2.12551
6.26	2.14295
6.27	2.11992
6.28	2.11762
6.29	2.11038
6.3	2.13571
6.31	2.1288
6.32	2.09656
6.33	2.12748
6.34	2.13735
6.35	2.13012
6.36	2.10939
6.37	2.10117
6.38	2.15249
6.39	2.12716
6.4	2.13406
6.41	2.1186
6.42	2.11038
6.43	2.1515
6.44	2.13209
6.45	2.1186
6.46	2.12485
6.47	2.13406
6.48	2.11202
6.49	2.11959
6.5	2.11104
6.51	2.12946
6.52	2.12025
6.53	2.10577
6.54	2.09229
6.55	2.12189
6.56	2.13077
6.57	2.1242
6.58	2.14624
6.59	2.10841
6.6	2.10742
6.61	2.1186
6.62	2.1311
6.63	2.11531
6.64	2.11663
6.65	2.13702
6.66	2.1186
6.67	2.15183
6.68	2.10512
6.69	2.12288
6.7	2.09985
6.71	2.11564
6.72	2.12485
6.73	2.11301
6.74	2.13143
6.75	2.11597
6.76	2.13604
6.77	2.12814
6.78	2.12222
6.79	2.1436
6.8	2.13077
6.81	2.13834
6.82	2.11334
6.83	2.10117
6.84	2.09887
6.85	2.13176
6.86	2.12847
6.87	2.1186
6.88	2.12781
6.89	2.12222
6.9	2.09887
6.91	2.12748
6.92	2.09755
6.93	2.10281
6.94	2.1015
6.95	2.12288
6.96	2.11696
6.97	2.13604
6.98	2.15018
6.99	2.10512
7	2.14064
7.01	2.14492
7.02	2.10512
7.03	2.10018
7.04	2.12354
7.05	2.13374
7.06	2.11762
7.07	2.10972
7.08	2.13143
7.09	2.14262
7.1	2.11005
7.11	2.11597
7.12	2.1311
7.13	2.15051
7.14	2.12946
7.15	2.12189
7.16	2.11795
7.17	2.11762
7.18	2.13209
7.19	2.12847
7.2	2.13045
7.21	2.12485
7.22	2.12485
7.23	2.11992
7.24	2.13012
7.25	2.13768
7.26	2.12255
7.27	2.13966
7.28	2.12913
7.29	2.114
7.3	2.14327
7.31	2.12946
7.32	2.13275
7.33	2.12551
7.34	2.12222
7.35	2.14393
7.36	2.15314
7.37	2.11104
7.38	2.13341
7.39	2.11893
7.4	2.13472
7.41	2.11959
7.42	2.12354
7.43	2.14624
7.44	2.13768
7.45	2.15709
7.46	2.14656
7.47	2.13045
7.48	2.15972
7.49	2.14624
7.5	2.14558
7.51	2.1367
7.52	2.13768
7.53	2.1038
7.54	2.14229
7.55	2.10841
7.56	2.10446
7.57	2.10084
7.58	2.11367
7.59	2.12485
7.6	2.11038
7.61	2.12814
7.62	2.12913
7.63	2.11137
7.64	2.12617
7.65	2.13242
7.66	2.09623
7.67	2.12716
7.68	2.12222
7.69	2.11367
7.7	2.11827
7.71	2.11202
7.72	2.10742
7.73	2.13275
7.74	2.12255
7.75	2.10939
7.76	2.11268
7.77	2.14229
7.78	2.1413
7.79	2.1163
7.8	2.11696
7.81	2.1265
7.82	2.12222
7.83	2.1186
7.84	2.13472
7.85	2.12255
7.86	2.13801
7.87	2.10577
7.88	2.12058
7.89	2.12025
7.9	2.14196
7.91	2.13209
7.92	2.13012
7.93	2.10676
7.94	2.14196
7.95	2.14525
7.96	2.10775
7.97	2.12058
7.98	2.11334
7.99	2.10841
8	2.12123
8.01	2.14295
8.02	2.10906
8.03	2.09492
8.04	2.12321
8.05	2.12058
8.06	2.09985
8.07	2.10808
8.08	2.12321
8.09	2.13045
8.1	2.10281
8.11	2.12913
8.12	2.14689
8.13	2.14953
8.14	2.14722
8.15	2.14097
8.16	2.15084
8.17	2.11202
8.18	2.13505
8.19	2.11597
8.2	2.12716
8.21	2.15281
8.22	2.13538
8.23	2.13012
8.24	2.12091
8.25	2.12584
8.26	2.12321
8.27	2.1265
8.28	2.11729
8.29	2.10314
8.3	2.11235
8.31	2.14887
8.32	2.13801
8.33	2.10676
8.34	2.12091
8.35	2.14031
8.36	2.11795
8.37	2.12847
8.38	2.11268
8.39	2.16926
8.4	2.12387
8.41	2.11202
8.42	2.13308
8.43	2.12387
8.44	2.14031
8.45	2.11235
8.46	2.12354
8.47	2.14196
8.48	2.14064
8.49	2.11564
8.5	2.13275
8.51	2.12617
8.52	2.11466
8.53	2.11795
8.54	2.12617
8.55	2.13966
8.56	2.12716
8.57	2.11762
8.58	2.1265
8.59	2.14229
8.6	2.11466
8.61	2.12946
8.62	2.12058
8.63	2.12288
8.64	2.12979
8.65	2.1265
8.66	2.12189
8.67	2.12781
8.68	2.14887
8.69	2.12847
8.7	2.12551
8.71	2.12979
8.72	2.10841
8.73	2.13176
8.74	2.13571
8.75	2.12617
8.76	2.12847
8.77	2.12025
8.78	2.13604
8.79	2.11564
8.8	2.12255
8.81	2.10808
8.82	2.12551
8.83	2.12913
8.84	2.1538
8.85	2.1515
8.86	2.12452
8.87	2.11235
8.88	2.16926
8.89	2.14426
8.9	2.12748
8.91	2.14788
8.92	2.11137
8.93	2.11992
8.94	2.13768
8.95	2.12222
8.96	2.11104
8.97	2.11729
8.98	2.10051
8.99	2.11696
9	2.10972
9.01	2.11202
9.02	2.11762
9.03	2.11268
9.04	2.11235
9.05	2.11696
9.06	2.13604
9.07	2.12123
9.08	2.14525
9.09	2.14755
9.1	2.1265
9.11	2.09163
9.12	2.13176
9.13	2.12847
9.14	2.14788
9.15	2.13571
9.16	2.11531
9.17	2.13045
9.18	2.15808
9.19	2.16499
9.2	2.15051
9.21	2.13077
9.22	2.11959
9.23	2.13439
9.24	2.14591
9.25	2.13275
9.26	2.09689
9.27	2.1163
9.28	2.13374
9.29	2.13308
9.3	2.14788
9.31	2.12452
9.32	2.14558
9.33	2.16203
9.34	2.15084
9.35	2.139
9.36	2.11268
9.37	2.14887
9.38	2.12025
9.39	2.12683
9.4	2.12123
9.41	2.15249
9.42	2.10808
9.43	2.09755
9.44	2.11959
9.45	2.12551
9.46	2.11827
9.47	2.11531
9.48	2.13406
9.49	2.12387
9.5	2.11564
9.51	2.13801
9.52	2.12485
9.53	2.15709
9.54	2.15874
9.55	2.11268
9.56	2.11827
9.57	2.14689
9.58	2.13275
9.59	2.11992
9.6	2.13209
9.61	2.15183
9.62	2.13374
9.63	2.14229
9.64	2.14426
9.65	2.11235
9.66	2.11959
9.67	2.13374
9.68	2.1242
9.69	2.12058
9.7	2.11531
9.71	2.09623
9.72	2.1265
9.73	2.11729
9.74	2.13637
9.75	2.12321
9.76	2.13604
9.77	2.12683
9.78	2.10808
9.79	2.10906
9.8	2.1038
9.81	2.10972
9.82	2.13077
9.83	2.10742
9.84	2.12025
9.85	2.12288
9.86	2.13012
9.87	2.10018
9.88	2.11202
9.89	2.13439
9.9	2.12354
9.91	2.16268
9.92	2.11827
9.93	2.12748
9.94	2.14525
9.95	2.11729
9.96	2.12222
9.97	2.13867
9.98	2.09952
9.99	2.1186
10	2.11959
10.01	2.10512
10.02	2.12518
10.03	2.12025
10.04	2.13702
10.05	2.09558
10.06	2.11038
10.07	2.10643
10.08	2.13242
10.09	2.1265
10.1	2.13933
10.11	2.14163
10.12	2.11498
10.13	2.14722
10.14	2.12058
10.15	2.11827
10.16	2.13374
10.17	2.12189
10.18	2.10446
10.19	2.11762
10.2	2.10939
10.21	2.1061
10.22	2.12748
10.23	2.15413
10.24	2.14393
10.25	2.11498
10.26	2.11137
10.27	2.089
10.28	2.1163
10.29	2.12946
10.3	2.11992
10.31	2.12091
10.32	2.1492
10.33	2.13275
10.34	2.1413
10.35	2.12452
10.36	2.10117
10.37	2.13242
10.38	2.12979
10.39	2.13966
10.4	2.12979
10.41	2.1265
10.42	2.11367
10.43	2.11367
10.44	2.1242
10.45	2.11038
10.46	2.11466
10.47	2.11169
10.48	2.10676
10.49	2.1311
10.5	2.08735
10.51	2.12913
10.52	2.12452
10.53	2.1242
10.54	2.12288
10.55	2.15643
10.56	2.12683
10.57	2.12683
10.58	2.13505
10.59	2.11926
10.6	2.12518
10.61	2.1242
10.62	2.11367
10.63	2.11597
10.64	2.11137
10.65	2.11301
10.66	2.13735
10.67	2.13077
10.68	2.13209
10.69	2.1186
10.7	2.11926
10.71	2.13143
10.72	2.15841
10.73	2.12518
10.74	2.12288
10.75	2.12321
10.76	2.13933
10.77	2.15051
10.78	2.1413
10.79	2.11301
10.8	2.11433
10.81	2.08834
10.82	2.13275
10.83	2.10347
10.84	2.14031
10.85	2.13604
10.86	2.16564
10.87	2.13209
10.88	2.10873
10.89	2.09229
10.9	2.11104
10.91	2.11071
10.92	2.1186
10.93	2.13472
10.94	2.11202
10.95	2.10479
10.96	2.09031
10.97	2.11367
10.98	2.12814
10.99	2.12748
11	2.11531
11.01	2.09031
11.02	2.10512
11.03	2.14426
11.04	2.13834
11.05	2.13637
11.06	2.12979
11.07	2.13801
11.08	2.139
11.09	2.1367
11.1	2.11498
11.11	2.14722
11.12	2.12716
11.13	2.1186
11.14	2.11169
11.15	2.12354
11.16	2.12189
11.17	2.11762
11.18	2.09887
11.19	2.10051
11.2	2.09919
11.21	2.10906
11.22	2.14064
11.23	2.11038
11.24	2.12354
11.25	2.11762
11.26	2.13012
11.27	2.1538
11.28	2.12748
11.29	2.11334
11.3	2.13867
11.31	2.13012
11.32	2.09952
11.33	2.10775
11.34	2.10084
11.35	2.13374
11.36	2.12946
11.37	2.11433
11.38	2.10873
11.39	2.12683
11.4	2.12683
11.41	2.12814
11.42	2.09393
11.43	2.1015
11.44	2.13209
11.45	2.11367
11.46	2.11696
11.47	2.114
11.48	2.12222
11.49	2.114
11.5	2.12288
11.51	2.15479
11.52	2.139
11.53	2.11795
11.54	2.13834
11.55	2.14196
11.56	2.12617
11.57	2.10248
11.58	2.11235
11.59	2.12584
11.6	2.13242
11.61	2.11498
11.62	2.13472
11.63	2.14229
11.64	2.13012
11.65	2.15084
11.66	2.11301
11.67	2.13801
11.68	2.1242
11.69	2.1038
11.7	2.09064
11.71	2.11169
11.72	2.10479
11.73	2.12814
11.74	2.1242
11.75	2.11498
11.76	2.11137
11.77	2.13077
11.78	2.12321
11.79	2.1288
11.8	2.10709
11.81	2.11795
11.82	2.12452
11.83	2.12683
11.84	2.15578
11.85	2.14064
11.86	2.14393
11.87	2.16137
11.88	2.14426
11.89	2.12387
11.9	2.10709
11.91	2.10676
11.92	2.11466
11.93	2.10183
11.94	2.13275
11.95	2.15117
11.96	2.14722
11.97	2.10544
11.98	2.15314
11.99	2.12814
12	2.13275
12.01	2.11531
12.02	2.1436
12.03	2.12716
12.04	2.11169
12.05	2.09393
12.06	2.14459
12.07	2.13834
12.08	2.10939
12.09	2.12847
12.1	2.14525
12.11	2.13077
12.12	2.15676
12.13	2.14459
12.14	2.13735
12.15	2.1492
12.16	2.12321
12.17	2.12814
12.18	2.13209
12.19	2.11466
12.2	2.11992
12.21	2.12979
12.22	2.13472
12.23	2.12979
12.24	2.13308
12.25	2.13012
12.26	2.12288
12.27	2.13341
12.28	2.09985
12.29	2.08735
12.3	2.16071
12.31	2.13702
12.32	2.14755
12.33	2.11696
12.34	2.10643
12.35	2.10347
12.36	2.1515
12.37	2.15117
12.38	2.11696
12.39	2.09919
12.4	2.10841
12.41	2.10479
12.42	2.10906
12.43	2.10709
12.44	2.10742
12.45	2.12716
12.46	2.12321
12.47	2.15347
12.48	2.13439
12.49	2.11235
12.5	2.13176
12.51	2.12025
12.52	2.12683
12.53	2.09755
12.54	2.1186
12.55	2.08669
12.56	2.11531
12.57	2.13834
12.58	2.10544
12.59	2.11597
12.6	2.10939
12.61	2.1163
12.62	2.12518
12.63	2.12518
12.64	2.11926
12.65	2.13834
12.66	2.11005
12.67	2.12452
12.68	2.14426
12.69	2.13176
12.7	2.09985
12.71	2.11663
12.72	2.12354
12.73	2.11235
12.74	2.1038
12.75	2.12485
12.76	2.08998
12.77	2.11071
12.78	2.1061
12.79	2.13472
12.8	2.15479
12.81	2.14327
12.82	2.13439
12.83	2.13735
12.84	2.13472
12.85	2.12123
12.86	2.14327
12.87	2.12091
12.88	2.1413
12.89	2.10281
12.9	2.11597
12.91	2.13341
12.92	2.11795
12.93	2.10906
12.94	2.12979
12.95	2.14327
12.96	2.15545
12.97	2.15413
12.98	2.10939
12.99	2.11795
13	2.12781
13.01	2.11696
13.02	2.13439
13.03	2.12321
13.04	2.12288
13.05	2.10018
13.06	2.12255
13.07	2.14689
13.08	2.14262
13.09	2.11926
13.1	2.15249
13.11	2.13209
13.12	2.13735
13.13	2.12452
13.14	2.10808
13.15	2.12288
13.16	2.12255
13.17	2.12485
13.18	2.09788
13.19	2.10347
13.2	2.15413
13.21	2.13209
13.22	2.14985
13.23	2.14229
13.24	2.13999
13.25	2.14656
13.26	2.13867
13.27	2.1311
13.28	2.13242
13.29	2.12748
13.3	2.14196
13.31	2.13176
13.32	2.12716
13.33	2.10709
13.34	2.14163
13.35	2.11959
13.36	2.14558
13.37	2.13571
13.38	2.13834
13.39	2.09393
13.4	2.12551
13.41	2.10446
13.42	2.10808
13.43	2.1265
13.44	2.1265
13.45	2.09262
13.46	2.12091
13.47	2.11729
13.48	2.13999
13.49	2.15281
13.5	2.12617
13.51	2.10018
13.52	2.12979
13.53	2.13702
13.54	2.14591
13.55	2.139
13.56	2.1038
13.57	2.10676
13.58	2.11762
13.59	2.10709
13.6	2.12781
13.61	2.11334
13.62	2.11466
13.63	2.1288
13.64	2.13999
13.65	2.12189
13.66	2.1311
13.67	2.12485
13.68	2.11893
13.69	2.14064
13.7	2.14064
13.71	2.14558
13.72	2.11071
13.73	2.12814
13.74	2.11466
13.75	2.11466
13.76	2.13341
13.77	2.13045
13.78	2.09623
13.79	2.12156
13.8	2.11071
13.81	2.10676
13.82	2.12058
13.83	2.12288
13.84	2.13308
13.85	2.12091
13.86	2.14953
13.87	2.13176
13.88	2.13604
13.89	2.13045
13.9	2.11301
13.91	2.12781
13.92	2.14689
13.93	2.13867
13.94	2.11959
13.95	2.11005
13.96	2.09919
13.97	2.13702
13.98	2.13834
13.99	2.11959
14	2.12716
14.01	2.11104
14.02	2.09294
14.03	2.10873
14.04	2.12222
14.05	2.15545
14.06	2.16564
14.07	2.12913
14.08	2.12354
14.09	2.09722
14.1	2.10939
14.11	2.12946
14.12	2.1311
14.13	2.14558
14.14	2.11663
14.15	2.10117
14.16	2.15479
14.17	2.1288
14.18	2.12946
14.19	2.1288
14.2	2.12814
14.21	2.12288
14.22	2.09919
14.23	2.13966
14.24	2.12518
14.25	2.12485
14.26	2.11729
14.27	2.12847
14.28	2.13143
14.29	2.13077
14.3	2.11827
14.31	2.12222
14.32	2.13308
14.33	2.10906
14.34	2.14097
14.35	2.13308
14.36	2.10873
14.37	2.13867
14.38	2.16433
14.39	2.1367
14.4	2.11268
14.41	2.12321
14.42	2.11137
14.43	2.09854
14.44	2.13999
14.45	2.13867
14.46	2.14459
14.47	2.13637
14.48	2.10479
14.49	2.12979
14.5	2.13012
14.51	2.10906
14.52	2.09985
14.53	2.13012
14.54	2.0936
14.55	2.10347
14.56	2.10972
14.57	2.12847
14.58	2.13143
14.59	2.12584
14.6	2.13505
14.61	2.11959
14.62	2.14327
14.63	2.11762
14.64	2.12913
14.65	2.11268
14.66	2.13242
14.67	2.14393
14.68	2.11334
14.69	2.12091
14.7	2.12913
14.71	2.13012
14.72	2.13505
14.73	2.09656
14.74	2.10808
14.75	2.12946
14.76	2.13176
14.77	2.14821
14.78	2.14755
14.79	2.12518
14.8	2.13801
14.81	2.11268
14.82	2.11137
14.83	2.11498
14.84	2.12551
14.85	2.10577
14.86	2.11169
14.87	2.14163
14.88	2.13209
14.89	2.12354
14.9	2.11531
14.91	2.10775
14.92	2.10248
14.93	2.11466
14.94	2.14525
14.95	2.12748
14.96	2.11729
14.97	2.12814
14.98	2.10577
14.99	2.14196
15	2.1242
15.01	2.11564
15.02	2.14196
15.03	2.14393
15.04	2.12387
15.05	2.10643
15.06	2.14426
15.07	2.12058
15.08	2.12288
15.09	2.14031
15.1	2.12781
15.11	2.14064
15.12	2.14196
15.13	2.1015
15.14	2.12913
15.15	2.13077
15.16	2.10183
15.17	2.1561
15.18	2.12716
15.19	2.11268
15.2	2.09919
15.21	2.15249
15.22	2.11433
15.23	2.114
15.24	2.11893
15.25	2.11498
15.26	2.12452
15.27	2.1413
15.28	2.16696
15.29	2.12222
15.3	2.11827
15.31	2.1186
15.32	2.12814
15.33	2.14459
15.34	2.14262
15.35	2.13571
15.36	2.09919
15.37	2.07781
15.38	2.08275
15.39	2.11268
15.4	2.13176
15.41	2.12584
15.42	2.1288
15.43	2.12551
15.44	2.1186
15.45	2.1061
15.46	2.11992
15.47	2.12189
15.48	2.12123
15.49	2.11926
15.5	2.11137
15.51	2.11268
15.52	2.12946
15.53	2.11795
15.54	2.12847
15.55	2.12255
15.56	2.08406
15.57	2.12058
15.58	2.11795
15.59	2.12979
15.6	2.11729
15.61	2.13045
15.62	2.11137
15.63	2.12584
15.64	2.11992
15.65	2.11038
15.66	2.11564
15.67	2.11202
15.68	2.11564
15.69	2.13341
15.7	2.15939
15.71	2.11433
15.72	2.09887
15.73	2.10742
15.74	2.09755
15.75	2.11992
15.76	2.12255
15.77	2.11827
15.78	2.10512
15.79	2.11992
15.8	2.11729
15.81	2.12452
15.82	2.11301
15.83	2.11235
15.84	2.11564
15.85	2.14031
15.86	2.10413
15.87	2.09919
15.88	2.0959
15.89	2.12321
15.9	2.12617
15.91	2.11498
15.92	2.11959
15.93	2.14393
15.94	2.14064
15.95	2.14591
15.96	2.12485
15.97	2.12387
15.98	2.11433
15.99	2.10512
16	2.12321
16.01	2.09919
16.02	2.13045
16.03	2.13933
16.04	2.13538
16.05	2.12255
16.06	2.11202
16.07	2.11038
16.08	2.1367
16.09	2.14788
16.1	2.14689
16.11	2.12913
16.12	2.11893
16.13	2.14492
16.14	2.1038
16.15	2.1265
16.16	2.11104
16.17	2.09919
16.18	2.10972
16.19	2.12387
16.2	2.10117
16.21	2.13933
16.22	2.11071
16.23	2.11268
16.24	2.13045
16.25	2.1413
16.26	2.1186
16.27	2.13209
16.28	2.12913
16.29	2.13538
16.3	2.16499
16.31	2.15775
16.32	2.15216
16.33	2.1288
16.34	2.12847
16.35	2.12946
16.36	2.12979
16.37	2.11367
16.38	2.114
16.39	2.12189
16.4	2.114
16.41	2.12123
16.42	2.11433
16.43	2.12025
16.44	2.09656
16.45	2.13374
16.46	2.14426
16.47	2.12288
16.48	2.13045
16.49	2.12716
16.5	2.13176
16.51	2.12979
16.52	2.1186
16.53	2.12058
16.54	2.11466
16.55	2.09163
16.56	2.114
16.57	2.13933
16.58	2.12091
16.59	2.15314
16.6	2.12814
16.61	2.13768
16.62	2.1288
16.63	2.09163
16.64	2.12913
16.65	2.11597
16.66	2.12979
16.67	2.13867
16.68	2.12058
16.69	2.10676
16.7	2.09985
16.71	2.12058
16.72	2.13867
16.73	2.12814
16.74	2.11926
16.75	2.1288
16.76	2.15051
16.77	2.16137
16.78	2.10643
16.79	2.10742
16.8	2.13143
16.81	2.13505
16.82	2.11564
16.83	2.13505
16.84	2.1242
16.85	2.11827
16.86	2.12748
16.87	2.11663
16.88	2.12025
16.89	2.12683
16.9	2.114
16.91	2.10808
16.92	2.12814
16.93	2.13768
16.94	2.13867
16.95	2.11104
16.96	2.14295
16.97	2.1311
16.98	2.09854
16.99	2.12091
17	2.1265
17.01	2.12683
17.02	2.15183
17.03	2.12123
17.04	2.114
17.05	2.10676
17.06	2.11235
17.07	2.13735
17.08	2.12518
17.09	2.12814
17.1	2.10512
17.11	2.11992
17.12	2.15051
17.13	2.12354
17.14	2.13012
17.15	2.13012
17.16	2.12617
17.17	2.11729
17.18	2.114
17.19	2.12025
17.2	2.10676
17.21	2.11762
17.22	2.11729
17.23	2.12222
17.24	2.12814
17.25	2.1311
17.26	2.13768
17.27	2.14821
17.28	2.14854
17.29	2.14229
17.3	2.09788
17.31	2.13374
17.32	2.13999
17.33	2.13966
17.34	2.10577
17.35	2.09426
17.36	2.09525
17.37	2.10709
17.38	2.10544
17.39	2.11005
17.4	2.14031
17.41	2.12748
17.42	2.13308
17.43	2.13209
17.44	2.13143
17.45	2.12781
17.46	2.11926
17.47	2.10479
17.48	2.11696
17.49	2.13308
17.5	2.14492
17.51	2.11893
17.52	2.12255
17.53	2.13768
17.54	2.11268
17.55	2.12156
17.56	2.11268
17.57	2.09525
17.58	2.11268
17.59	2.10479
17.6	2.08472
17.61	2.11893
17.62	2.1242
17.63	2.12485
17.64	2.12847
17.65	2.15347
17.66	2.11992
17.67	2.13834
17.68	2.12156
17.69	2.14459
17.7	2.12781
17.71	2.09952
17.72	2.10117
17.73	2.12156
17.74	2.11498
17.75	2.11597
17.76	2.08637
17.77	2.11762
17.78	2.13571
17.79	2.12255
17.8	2.13077
17.81	2.12091
17.82	2.15446
17.83	2.11795
17.84	2.09919
17.85	2.11301
17.86	2.13439
17.87	2.1265
17.88	2.12288
17.89	2.11235
17.9	2.12946
17.91	2.13702
17.92	2.11466
17.93	2.12716
17.94	2.12946
17.95	2.13966
17.96	2.13308
17.97	2.13571
17.98	2.13143
17.99	2.13735
18	2.10314
18.01	2.09525
18.02	2.10841
18.03	2.12979
18.04	2.12091
18.05	2.16235
18.06	2.13341
18.07	2.17222
18.08	2.15281
18.09	2.16301
18.1	2.11762
18.11	2.09985
18.12	2.13966
18.13	2.12156
18.14	2.11235
18.15	2.12485
18.16	2.12189
18.17	2.10314
18.18	2.10808
18.19	2.17091
18.2	2.12946
18.21	2.1515
18.22	2.1242
18.23	2.14295
18.24	2.12123
18.25	2.12025
18.26	2.13637
18.27	2.11729
18.28	2.14755
18.29	2.13933
18.3	2.12123
18.31	2.10281
18.32	2.11795
18.33	2.10775
18.34	2.12025
18.35	2.11926
18.36	2.12288
18.37	2.1515
18.38	2.12387
18.39	2.11729
18.4	2.11926
18.41	2.11729
18.42	2.14163
18.43	2.11926
18.44	2.1311
18.45	2.11005
18.46	2.12716
18.47	2.14887
18.48	2.12683
18.49	2.11433
18.5	2.11334
18.51	2.15545
18.52	2.15742
18.53	2.11795
18.54	2.09755
18.55	2.13209
18.56	2.13834
18.57	2.12156
18.58	2.11334
18.59	2.08439
18.6	2.12354
18.61	2.1288
18.62	2.08834
18.63	2.12551
18.64	2.139
18.65	2.13143
18.66	2.12518
18.67	2.12354
18.68	2.12123
18.69	2.10018
18.7	2.12716
18.71	2.11301
18.72	2.10577
18.73	2.11729
18.74	2.12814
18.75	2.13439
18.76	2.13637
18.77	2.13472
18.78	2.13604
18.79	2.10281
18.8	2.12979
18.81	2.12847
18.82	2.12288
18.83	2.09196
18.84	2.11104
18.85	2.13768
18.86	2.12814
18.87	2.12485
18.88	2.12156
18.89	2.1288
18.9	2.11433
18.91	2.14821
18.92	2.14229
18.93	2.11169
18.94	2.13045
18.95	2.11202
18.96	2.12091
18.97	2.1015
18.98	2.14262
18.99	2.12781
19	2.12452
19.01	2.12321
19.02	2.13735
19.03	2.16235
19.04	2.10643
19.05	2.11367
19.06	2.12518
19.07	2.13735
19.08	2.11202
19.09	2.13045
19.1	2.13505
19.11	2.13242
19.12	2.12913
19.13	2.13143
19.14	2.11466
19.15	2.12913
19.16	2.11202
19.17	2.12025
19.18	2.1288
19.19	2.10808
19.2	2.12847
19.21	2.13472
19.22	2.13472
19.23	2.12189
19.24	2.1163
19.25	2.09327
19.26	2.114
19.27	2.13439
19.28	2.13867
19.29	2.13637
19.3	2.13176
19.31	2.14262
19.32	2.13538
19.33	2.11564
19.34	2.11071
19.35	2.11564
19.36	2.11005
19.37	2.10577
19.38	2.13505
19.39	2.11893
19.4	2.09163
19.41	2.10808
19.42	2.13735
19.43	2.12091
19.44	2.139
19.45	2.15512
19.46	2.14229
19.47	2.12946
19.48	2.08373
19.49	2.12913
19.5	2.1163
19.51	2.11005
19.52	2.12814
19.53	2.13077
19.54	2.12748
19.55	2.12946
19.56	2.1311
19.57	2.14459
19.58	2.1242
19.59	2.13242
19.6	2.11663
19.61	2.11367
19.62	2.09985
19.63	2.14985
19.64	2.1311
19.65	2.11926
19.66	2.13374
19.67	2.12123
19.68	2.1311
19.69	2.14525
19.7	2.12321
19.71	2.13275
19.72	2.13439
19.73	2.1538
19.74	2.13209
19.75	2.11071
19.76	2.1288
19.77	2.10183
19.78	2.11531
19.79	2.11959
19.8	2.11005
19.81	2.09459
19.82	2.13604
19.83	2.12847
19.84	2.1311
19.85	2.13012
19.86	2.11926
19.87	2.11367
19.88	2.09755
19.89	2.11827
19.9	2.12913
19.91	2.1288
19.92	2.12255
19.93	2.14985
19.94	2.1367
19.95	2.13242
19.96	2.09031
19.97	2.12781
19.98	2.10577
19.99	2.13176
20	2.13439
20.01	2.11795
20.02	2.13933
20.03	2.11433
20.04	2.10051
20.05	2.12485
20.06	2.14196
20.07	2.10709
20.08	2.13242
20.09	2.13604
20.1	2.14558
20.11	2.14262
20.12	2.1515
20.13	2.1413
20.14	2.14163
20.15	2.14492
20.16	2.12288
20.17	2.14656
20.18	2.14196
20.19	2.13143
20.2	2.15249
20.21	2.11893
20.22	2.12683
20.23	2.10413
20.24	2.12222
20.25	2.11795
20.26	2.11104
20.27	2.12452
20.28	2.1242
20.29	2.10709
20.3	2.15709
20.31	2.14393
20.32	2.15808
20.33	2.11466
20.34	2.11531
20.35	2.12354
20.36	2.12091
20.37	2.11433
20.38	2.12058
20.39	2.10479
20.4	2.10216
20.41	2.12485
20.42	2.11827
20.43	2.10347
20.44	2.13735
20.45	2.12716
20.46	2.08406
20.47	2.10479
20.48	2.11005
20.49	2.11696
20.5	2.11926
20.51	2.13472
20.52	2.12485
20.53	2.13275
20.54	2.09294
20.55	2.11926
20.56	2.11893
20.57	2.1015
20.58	2.12321
20.59	2.13341
20.6	2.13242
20.61	2.11235
20.62	2.11795
20.63	2.12716
20.64	2.11433
20.65	2.08011
20.66	2.09262
20.67	2.13077
20.68	2.14558
20.69	2.1186
20.7	2.12716
20.71	2.1367
20.72	2.12123
20.73	2.11235
20.74	2.1186
20.75	2.13571
20.76	2.13012
20.77	2.11104
20.78	2.1061
20.79	2.13308
20.8	2.16499
20.81	2.14525
20.82	2.13505
20.83	2.11071
20.84	2.11729
20.85	2.12321
20.86	2.10281
20.87	2.12485
20.88	2.12123
20.89	2.09919
20.9	2.10709
20.91	2.10972
20.92	2.11597
20.93	2.12091
20.94	2.13308
20.95	2.15018
20.96	2.12288
20.97	2.13374
20.98	2.13143
20.99	2.13374
21	2.12979
21.01	2.12387
21.02	2.13735
21.03	2.12091
21.04	2.12716
21.05	2.11433
21.06	2.11367
21.07	2.13308
21.08	2.10906
21.09	2.11762
21.1	2.15742
21.11	2.12321
21.12	2.13801
21.13	2.14525
21.14	2.09558
21.15	2.08209
21.16	2.1311
21.17	2.11729
21.18	2.14525
21.19	2.13045
21.2	2.12222
21.21	2.12913
21.22	2.10544
21.23	2.11597
21.24	2.13242
21.25	2.14064
21.26	2.11696
21.27	2.10873
21.28	2.11498
21.29	2.12387
21.3	2.13702
21.31	2.1038
21.32	2.12255
21.33	2.15084
21.34	2.139
21.35	2.12485
21.36	2.13439
21.37	2.10479
21.38	2.13242
21.39	2.12354
21.4	2.13999
21.41	2.114
21.42	2.13077
21.43	2.13637
21.44	2.13834
21.45	2.11531
21.46	2.14327
21.47	2.13242
21.48	2.1163
21.49	2.13505
21.5	2.11268
21.51	2.16564
21.52	2.12485
21.53	2.10808
21.54	2.12452
21.55	2.12551
21.56	2.12584
21.57	2.14327
21.58	2.14591
21.59	2.14525
21.6	2.15183
21.61	2.14097
21.62	2.12683
21.63	2.1413
21.64	2.1265
21.65	2.10084
21.66	2.11597
21.67	2.1413
21.68	2.10479
21.69	2.13768
21.7	2.13341
21.71	2.13045
21.72	2.10742
21.73	2.10347
21.74	2.11795
21.75	2.13406
21.76	2.12025
21.77	2.12847
21.78	2.10939
21.79	2.12485
21.8	2.12551
21.81	2.114
21.82	2.14064
21.83	2.14624
21.84	2.13735
21.85	2.12091
21.86	2.11104
21.87	2.11992
21.88	2.12189
21.89	2.12814
21.9	2.1413
21.91	2.13406
21.92	2.11795
21.93	2.10544
21.94	2.11498
21.95	2.07814
21.96	2.11729
21.97	2.11663
21.98	2.13966
21.99	2.13571
22	2.13439
22.01	2.114
22.02	2.10314
22.03	2.11235
22.04	2.11564
22.05	2.11071
22.06	2.15117
22.07	2.12814
22.08	2.10544
22.09	2.13702
22.1	2.13242
22.11	2.1515
22.12	2.13341
22.13	2.11696
22.14	2.11005
22.15	2.08637
22.16	2.0913
22.17	2.1367
22.18	2.14031
22.19	2.09952
22.2	2.09262
22.21	2.11169
22.22	2.1163
22.23	2.11959
22.24	2.10939
22.25	2.11696
22.26	2.13604
22.27	2.11498
22.28	2.12387
22.29	2.12781
22.3	2.11926
22.31	2.12091
22.32	2.11597
22.33	2.11531
22.34	2.13045
22.35	2.114
22.36	2.11762
22.37	2.12025
22.38	2.10084
22.39	2.11762
22.4	2.13406
22.41	2.11893
22.42	2.10281
22.43	2.12025
22.44	2.1186
22.45	2.12847
22.46	2.14426
22.47	2.13966
22.48	2.14624
22.49	2.13637
22.5	2.12452
22.51	2.10939
22.52	2.10841
22.53	2.1186
22.54	2.13308
22.55	2.14821
22.56	2.1288
22.57	2.10446
22.58	2.09327
22.59	2.10479
22.6	2.15084
22.61	2.1311
22.62	2.1242
22.63	2.1163
22.64	2.1163
22.65	2.14229
22.66	2.11104
22.67	2.12156
22.68	2.14591
22.69	2.11301
22.7	2.08801
22.71	2.1367
22.72	2.12617
22.73	2.11334
22.74	2.12913
22.75	2.10216
22.76	2.13374
22.77	2.09788
22.78	2.10775
22.79	2.12913
22.8	2.1367
22.81	2.10775
22.82	2.11564
22.83	2.10479
22.84	2.12321
22.85	2.11367
22.86	2.12847
22.87	2.1288
22.88	2.13209
22.89	2.139
22.9	2.13801
22.91	2.12354
22.92	2.13077
22.93	2.13012
22.94	2.10742
22.95	2.11926
22.96	2.1515
22.97	2.14854
22.98	2.12025
22.99	2.12222
23	2.12748
23.01	2.12091
23.02	2.11827
23.03	2.09294
23.04	2.12222
23.05	2.12222
23.06	2.11531
23.07	2.12123
23.08	2.10183
23.09	2.11564
23.1	2.10413
23.11	2.10216
23.12	2.16005
23.13	2.14755
23.14	2.16268
23.15	2.13801
23.16	2.11268
23.17	2.15249
23.18	2.15183
23.19	2.14624
23.2	2.14163
23.21	2.13374
23.22	2.11827
23.23	2.12387
23.24	2.12847
23.25	2.09459
23.26	2.10709
23.27	2.10775
23.28	2.12584
23.29	2.13341
23.3	2.12025
23.31	2.13637
23.32	2.10972
23.33	2.10446
23.34	2.11827
23.35	2.1265
23.36	2.08308
23.37	2.13275
23.38	2.12716
23.39	2.12354
23.4	2.1288
23.41	2.12814
23.42	2.12518
23.43	2.11729
23.44	2.12551
23.45	2.15314
23.46	2.13637
23.47	2.12255
23.48	2.10841
23.49	2.10216
23.5	2.10808
23.51	2.10512
23.52	2.13406
23.53	2.11433
23.54	2.11959
23.55	2.11367
23.56	2.12946
23.57	2.12551
23.58	2.12847
23.59	2.11992
23.6	2.11531
23.61	2.08867
23.62	2.11696
23.63	2.10841
23.64	2.13143
23.65	2.15874
23.66	2.12847
23.67	2.15216
23.68	2.12814
23.69	2.13604
23.7	2.12847
23.71	2.11334
23.72	2.1163
23.73	2.12617
23.74	2.10972
23.75	2.13374
23.76	2.13308
23.77	2.13275
23.78	2.12387
23.79	2.1061
23.8	2.1061
23.81	2.09854
23.82	2.13702
23.83	2.12946
23.84	2.1242
23.85	2.14393
23.86	2.14953
23.87	2.11795
23.88	2.12255
23.89	2.1311
23.9	2.11334
23.91	2.10446
23.92	2.13637
23.93	2.12189
23.94	2.11893
23.95	2.13341
23.96	2.10018
23.97	2.11531
23.98	2.12748
23.99	2.12847
24	2.13275
24.01	2.11959
24.02	2.12321
24.03	2.13341
24.04	2.10841
24.05	2.1061
24.06	2.1265
24.07	2.14821
24.08	2.1265
24.09	2.11959
24.1	2.11893
24.11	2.13176
24.12	2.1413
24.13	2.10577
24.14	2.1367
24.15	2.11893
24.16	2.0788
24.17	2.12913
24.18	2.14295
24.19	2.11795
24.2	2.10643
24.21	2.11433
24.22	2.13341
24.23	2.1242
24.24	2.11169
24.25	2.14689
24.26	2.13242
24.27	2.09821
24.28	2.11301
24.29	2.14689
24.3	2.1265
24.31	2.09623
24.32	2.12979
24.33	2.1061
24.34	2.12058
24.35	2.11235
24.36	2.09689
24.37	2.12617
24.38	2.14097
24.39	2.13505
24.4	2.139
24.41	2.1186
24.42	2.09722
24.43	2.114
24.44	2.14985
24.45	2.11137
24.46	2.12123
24.47	2.13077
24.48	2.10183
24.49	2.12781
24.5	2.12058
24.51	2.13045
24.52	2.0959
24.53	2.13406
24.54	2.14492
24.55	2.12058
24.56	2.12025
24.57	2.10939
24.58	2.12946
24.59	2.11795
24.6	2.12321
24.61	2.13143
24.62	2.11827
24.63	2.1186
24.64	2.13341
24.65	2.11959
24.66	2.10084
24.67	2.10248
24.68	2.13077
24.69	2.12156
24.7	2.14327
24.71	2.11992
24.72	2.12485
24.73	2.12617
24.74	2.15742
24.75	2.09821
24.76	2.114
24.77	2.13209
24.78	2.10972
24.79	2.1061
24.8	2.14393
24.81	2.15479
24.82	2.11433
24.83	2.10216
24.84	2.12189
24.85	2.08373
24.86	2.12123
24.87	2.14492
24.88	2.11696
24.89	2.12584
24.9	2.12748
24.91	2.13571
24.92	2.11433
24.93	2.12387
24.94	2.14196
24.95	2.10413
24.96	2.10873
24.97	2.13176
24.98	2.1163
24.99	2.11498
25	2.10544
25.01	2.12222
25.02	2.13077
25.03	2.12979
25.04	2.14327
25.05	2.12321
25.06	2.12058
25.07	2.14064
25.08	2.1015
25.09	2.11433
25.1	2.11531
25.11	2.10084
25.12	2.10742
25.13	2.13637
25.14	2.14426
25.15	2.12321
25.16	2.11663
25.17	2.10873
25.18	2.12979
25.19	2.10972
25.2	2.11334
25.21	2.11926
25.22	2.10808
25.23	2.1038
25.24	2.10742
25.25	2.14196
25.26	2.12979
25.27	2.12913
25.28	2.13867
25.29	2.14031
25.3	2.12946
25.31	2.10939
25.32	2.12485
25.33	2.11795
25.34	2.12222
25.35	2.11498
25.36	2.13472
25.37	2.09031
25.38	2.1311
25.39	2.1265
25.4	2.11466
25.41	2.12847
25.42	2.12683
25.43	2.08998
25.44	2.11301
25.45	2.10643
25.46	2.10577
25.47	2.11827
25.48	2.12222
25.49	2.12781
25.5	2.11005
25.51	2.13176
25.52	2.12551
25.53	2.089
25.54	2.12387
25.55	2.13341
25.56	2.13735
25.57	2.14854
25.58	2.15643
25.59	2.1311
25.6	2.13834
25.61	2.16005
25.62	2.14722
25.63	2.13472
25.64	2.12354
25.65	2.12387
25.66	2.1163
25.67	2.1288
25.68	2.11564
25.69	2.14689
25.7	2.13275
25.71	2.14229
25.72	2.13439
25.73	2.13045
25.74	2.13077
25.75	2.1242
25.76	2.11367
25.77	2.10512
25.78	2.13242
25.79	2.11992
25.8	2.11005
25.81	2.12288
25.82	2.1186
25.83	2.13604
25.84	2.13702
25.85	2.12847
25.86	2.15906
25.87	2.13012
25.88	2.12946
25.89	2.14656
25.9	2.13966
25.91	2.1515
25.92	2.12716
25.93	2.1288
25.94	2.15117
25.95	2.11268
25.96	2.13275
25.97	2.12091
25.98	2.11466
25.99	2.11992
26	2.1288
26.01	2.114
26.02	2.10939
26.03	2.12288
26.04	2.12025
26.05	2.09064
26.06	2.11169
26.07	2.10544
26.08	2.08143
26.09	2.12485
26.1	2.13406
26.11	2.13505
26.12	2.12222
26.13	2.1015
26.14	2.12387
26.15	2.10183
26.16	2.11334
26.17	2.11729
26.18	2.11466
26.19	2.10183
26.2	2.12321
26.21	2.14064
26.22	2.13801
26.23	2.12123
26.24	2.14393
26.25	2.15643
26.26	2.1538
26.27	2.13768
26.28	2.15249
26.29	2.15578
26.3	2.14821
26.31	2.1265
26.32	2.12485
26.33	2.12551
26.34	2.11169
26.35	2.10347
26.36	2.13045
26.37	2.12354
26.38	2.1367
26.39	2.12387
26.4	2.09755
26.41	2.13538
26.42	2.14854
26.43	2.13176
26.44	2.11795
26.45	2.09952
26.46	2.09722
26.47	2.1413
26.48	2.14064
26.49	2.11762
26.5	2.1038
26.51	2.12716
26.52	2.12222
26.53	2.11498
26.54	2.12025
26.55	2.13604
26.56	2.15314
26.57	2.14591
26.58	2.14591
26.59	2.11137
26.6	2.12748
26.61	2.12354
26.62	2.13472
26.63	2.12814
26.64	2.14229
26.65	2.12946
26.66	2.13242
26.67	2.13472
26.68	2.1413
26.69	2.12716
26.7	2.10742
26.71	2.10709
26.72	2.11597
26.73	2.12255
26.74	2.13406
26.75	2.15314
26.76	2.12485
26.77	2.11531
26.78	2.12847
26.79	2.1186
26.8	2.10577
26.81	2.11235
26.82	2.1186
26.83	2.11992
26.84	2.10742
26.85	2.12321
26.86	2.14525
26.87	2.11104
26.88	2.1242
26.89	2.12255
26.9	2.12781
26.91	2.14064
26.92	2.09097
26.93	2.08209
26.94	2.114
26.95	2.13834
26.96	2.13604
26.97	2.12058
26.98	2.13012
26.99	2.12814
27	2.12716
27.01	2.10084
27.02	2.13143
27.03	2.10413
27.04	2.12025
27.05	2.12354
27.06	2.12189
27.07	2.11498
27.08	2.12683
27.09	2.13275
27.1	2.15906
27.11	2.12913
27.12	2.11531
27.13	2.11827
27.14	2.09887
27.15	2.11531
27.16	2.11433
27.17	2.10808
27.18	2.09854
27.19	2.13341
27.2	2.14064
27.21	2.12058
27.22	2.12716
27.23	2.16532
27.24	2.12847
27.25	2.11498
27.26	2.1515
27.27	2.13374
27.28	2.12946
27.29	2.1265
27.3	2.12847
27.31	2.13604
27.32	2.11762
27.33	2.12716
27.34	2.12814
27.35	2.14821
27.36	2.1311
27.37	2.12387
27.38	2.13867
27.39	2.11104
27.4	2.15874
27.41	2.13045
27.42	2.11235
27.43	2.11071
27.44	2.13702
27.45	2.1163
27.46	2.12551
27.47	2.10906
27.48	2.13966
27.49	2.13834
27.5	2.11729
27.51	2.09722
27.52	2.09558
27.53	2.16367
27.54	2.11926
27.55	2.11202
27.56	2.11992
27.57	2.12946
27.58	2.14229
27.59	2.11795
27.6	2.12025
27.61	2.12518
27.62	2.12189
27.63	2.11334
27.64	2.10643
27.65	2.12847
27.66	2.13275
27.67	2.1038
27.68	2.1265
27.69	2.12716
27.7	2.13341
27.71	2.12387
27.72	2.12814
27.73	2.11696
27.74	2.13406
27.75	2.12091
27.76	2.09821
27.77	2.10413
27.78	2.12058
27.79	2.12485
27.8	2.11071
27.81	2.11169
27.82	2.12847
27.83	2.1311
27.84	2.11827
27.85	2.08669
27.86	2.12485
27.87	2.14689
27.88	2.13209
27.89	2.11005
27.9	2.11893
27.91	2.11334
27.92	2.13341
27.93	2.16038
27.94	2.12716
27.95	2.11071
27.96	2.13406
27.97	2.09229
27.98	2.12123
27.99	2.13834
28	2.14163
28.01	2.14163
28.02	2.13439
28.03	2.1265
28.04	2.14196
28.05	2.11893
28.06	2.13637
28.07	2.14459
28.08	2.13374
28.09	2.1367
28.1	2.11696
28.11	2.12189
28.12	2.13604
28.13	2.14064
28.14	2.11433
28.15	2.13209
28.16	2.13538
28.17	2.1242
28.18	2.12025
28.19	2.11696
28.2	2.12979
28.21	2.13604
28.22	2.10544
28.23	2.12781
28.24	2.16104
28.25	2.11005
28.26	2.11334
28.27	2.12321
28.28	2.10084
28.29	2.10709
28.3	2.13472
28.31	2.11367
28.32	2.10347
28.33	2.11466
28.34	2.12452
28.35	2.1367
28.36	2.14492
28.37	2.1367
28.38	2.12354
28.39	2.11466
28.4	2.10972
28.41	2.11005
28.42	2.13933
28.43	2.12979
28.44	2.12222
28.45	2.11597
28.46	2.13439
28.47	2.12222
28.48	2.12584
28.49	2.11268
28.5	2.12946
28.51	2.13966
28.52	2.13571
28.53	2.14327
28.54	2.12189
28.55	2.11729
28.56	2.12584
28.57	2.12255
28.58	2.12058
28.59	2.12354
28.6	2.10775
28.61	2.14097
28.62	2.13406
28.63	2.1515
28.64	2.14953
28.65	2.13472
28.66	2.10577
28.67	2.11235
28.68	2.11663
28.69	2.13242
28.7	2.14788
28.71	2.12913
28.72	2.13275
28.73	2.14327
28.74	2.13045
28.75	2.12683
28.76	2.10084
28.77	2.14624
28.78	2.1311
28.79	2.11992
28.8	2.14196
28.81	2.12058
28.82	2.13374
28.83	2.11301
28.84	2.12683
28.85	2.139
28.86	2.12025
28.87	2.14887
28.88	2.1265
28.89	2.13966
28.9	2.14788
28.91	2.09558
28.92	2.11071
28.93	2.10183
28.94	2.114
28.95	2.09229
28.96	2.10347
28.97	2.11235
28.98	2.12979
28.99	2.13176
29	2.12321
29.01	2.11564
29.02	2.12288
29.03	2.17157
29.04	2.14624
29.05	2.12847
29.06	2.15874
29.07	2.10972
29.08	2.12091
29.09	2.139
29.1	2.13505
29.11	2.1492
29.12	2.13143
29.13	2.11762
29.14	2.1367
29.15	2.13077
29.16	2.12518
29.17	2.13439
29.18	2.15347
29.19	2.164
29.2	2.11762
29.21	2.11992
29.22	2.10512
29.23	2.12091
29.24	2.13275
29.25	2.16663
29.26	2.11235
29.27	2.13209
29.28	2.12551
29.29	2.10972
29.3	2.14327
29.31	2.14722
29.32	2.1413
29.33	2.12946
29.34	2.12189
29.35	2.11531
29.36	2.12189
29.37	2.12354
29.38	2.114
29.39	2.09755
29.4	2.11893
29.41	2.12025
29.42	2.1288
29.43	2.114
29.44	2.10643
29.45	2.11005
29.46	2.10939
29.47	2.10446
29.48	2.1311
29.49	2.11169
29.5	2.10808
29.51	2.09854
29.52	2.11564
29.53	2.14788
29.54	2.12518
29.55	2.13702
29.56	2.11137
29.57	2.10577
29.58	2.15808
29.59	2.12189
29.6	2.14196
29.61	2.1367
29.62	2.08965
29.63	2.12979
29.64	2.15413
29.65	2.10512
29.66	2.11893
29.67	2.11762
29.68	2.12025
29.69	2.11992
29.7	2.15874
29.71	2.11498
29.72	2.10577
29.73	2.12123
29.74	2.12683
29.75	2.14459
29.76	2.11729
29.77	2.09492
29.78	2.11498
29.79	2.12222
29.8	2.11893
29.81	2.13933
29.82	2.10972
29.83	2.12946
29.84	2.11367
29.85	2.13374
29.86	2.12288
29.87	2.12452
29.88	2.1288
29.89	2.13768
29.9	2.12485
29.91	2.12288
29.92	2.14525
29.93	2.11498
29.94	2.10577
29.95	2.09492
29.96	2.10051
29.97	2.12288
29.98	2.14591
29.99	2.12584
30	2.13604
30.01	2.14229
30.02	2.15314
30.03	2.13571
30.04	2.1367
30.05	2.1515
30.06	2.16367
30.07	2.12255
30.08	2.10709
30.09	2.1163
30.1	2.11564
30.11	2.12222
30.12	2.11893
30.13	2.12979
30.14	2.09985
30.15	2.11926
30.16	2.14097
30.17	2.12222
30.18	2.16301
30.19	2.16696
30.2	2.13933
30.21	2.13012
30.22	2.11268
30.23	2.10939
30.24	2.1311
30.25	2.14229
30.26	2.13275
30.27	2.12255
30.28	2.10709
30.29	2.12781
30.3	2.139
30.31	2.11827
30.32	2.13768
30.33	2.12748
30.34	2.09854
30.35	2.11663
30.36	2.11827
30.37	2.13242
30.38	2.12913
30.39	2.12716
30.4	2.11137
30.41	2.1288
30.42	2.13637
30.43	2.15413
30.44	2.12156
30.45	2.12485
30.46	2.11038
30.47	2.1061
30.48	2.1038
30.49	2.11597
30.5	2.12946
30.51	2.15249
30.52	2.13406
30.53	2.11827
30.54	2.10281
30.55	2.11663
30.56	2.14196
30.57	2.15314
30.58	2.11202
30.59	2.12485
30.6	2.12321
30.61	2.11334
30.62	2.11268
30.63	2.1617
30.64	2.1311
30.65	2.14064
30.66	2.14163
30.67	2.13012
30.68	2.139
30.69	2.14064
30.7	2.12518
30.71	2.12485
30.72	2.12189
30.73	2.12683
30.74	2.11202
30.75	2.1288
30.76	2.14492
30.77	2.14624
30.78	2.12847
30.79	2.11729
30.8	2.11827
30.81	2.12518
30.82	2.15808
30.83	2.15676
30.84	2.13406
30.85	2.11893
30.86	2.10314
30.87	2.09854
30.88	2.11663
30.89	2.12748
30.9	2.12716
30.91	2.14558
30.92	2.1242
30.93	2.11564
30.94	2.12683
30.95	2.12617
30.96	2.11169
30.97	2.12913
30.98	2.13735
30.99	2.12288
31	2.1413
31.01	2.12584
31.02	2.12255
31.03	2.13176
31.04	2.1367
31.05	2.12913
31.06	2.11104
31.07	2.09854
31.08	2.12288
31.09	2.11992
31.1	2.10841
31.11	2.10841
31.12	2.10873
31.13	2.12387
31.14	2.12123
31.15	2.12485
31.16	2.13143
31.17	2.10873
31.18	2.10413
31.19	2.10216
31.2	2.13966
31.21	2.13275
31.22	2.14031
31.23	2.10248
31.24	2.139
31.25	2.14887
31.26	2.13242
31.27	2.12321
31.28	2.11071
31.29	2.12321
31.3	2.12748
31.31	2.12748
31.32	2.11795
31.33	2.12913
31.34	2.12025
31.35	2.13045
31.36	2.11992
31.37	2.15446
31.38	2.13406
31.39	2.11795
31.4	2.13209
31.41	2.14459
31.42	2.14821
31.43	2.11762
31.44	2.11268
31.45	2.09525
31.46	2.09854
31.47	2.09788
31.48	2.0834
31.49	2.11367
31.5	2.10643
31.51	2.1242
31.52	2.13406
31.53	2.10117
31.54	2.09558
31.55	2.12288
31.56	2.11104
31.57	2.12123
31.58	2.13735
31.59	2.15906
31.6	2.1436
31.61	2.12913
31.62	2.13242
31.63	2.13966
31.64	2.13867
31.65	2.11795
31.66	2.11696
31.67	2.1311
31.68	2.12288
31.69	2.11466
31.7	2.13637
31.71	2.12748
31.72	2.12222
31.73	2.13735
31.74	2.14821
31.75	2.14656
31.76	2.17518
31.77	2.11038
31.78	2.10018
31.79	2.13308
31.8	2.12814
31.81	2.16532
31.82	2.14031
31.83	2.12814
31.84	2.12814
31.85	2.13637
31.86	2.11005
31.87	2.08998
31.88	2.0959
31.89	2.09755
31.9	2.13604
31.91	2.14656
31.92	2.12485
31.93	2.13933
31.94	2.14722
31.95	2.15841
31.96	2.12123
31.97	2.11498
31.98	2.12156
31.99	2.12946
32	2.11268
32.01	2.11564
32.02	2.12584
32.03	2.1038
32.04	2.11696
32.05	2.11564
32.06	2.12847
32.07	2.12847
32.08	2.13308
32.09	2.11038
32.1	2.12485
32.11	2.13077
32.12	2.09327
32.13	2.0959
32.14	2.10577
32.15	2.1367
32.16	2.12979
32.17	2.12091
32.18	2.1288
32.19	2.11038
32.2	2.13045
32.21	2.12617
32.22	2.11729
32.23	2.12222
32.24	2.12354
32.25	2.14492
32.26	2.1288
32.27	2.12814
32.28	2.12123
32.29	2.11104
32.3	2.10906
32.31	2.11992
32.32	2.11071
32.33	2.12354
32.34	2.11235
32.35	2.11268
32.36	2.11959
32.37	2.10808
32.38	2.12913
32.39	2.12946
32.4	2.14656
32.41	2.11367
32.42	2.1436
32.43	2.11827
32.44	2.12387
32.45	2.14887
32.46	2.13242
32.47	2.12847
32.48	2.13341
32.49	2.13933
32.5	2.14262
32.51	2.10841
32.52	2.14393
32.53	2.12781
32.54	2.13999
32.55	2.13933
32.56	2.11301
32.57	2.11893
32.58	2.11663
32.59	2.12058
32.6	2.11235
32.61	2.12551
32.62	2.12913
32.63	2.12452
32.64	2.10643
32.65	2.16104
32.66	2.13966
32.67	2.10676
32.68	2.12979
32.69	2.12946
32.7	2.15183
32.71	2.1561
32.72	2.13242
32.73	2.11959
32.74	2.1288
32.75	2.13867
32.76	2.1515
32.77	2.13472
32.78	2.1538
32.79	2.12946
32.8	2.12913
32.81	2.15117
32.82	2.13966
32.83	2.12814
32.84	2.11466
32.85	2.114
32.86	2.10808
32.87	2.14788
32.88	2.11104
32.89	2.12387
32.9	2.12683
32.91	2.14788
32.92	2.12781
32.93	2.11893
32.94	2.11367
32.95	2.07715
32.96	2.13867
32.97	2.11729
32.98	2.09985
32.99	2.08505
33	2.13505
33.01	2.15314
33.02	2.11104
33.03	2.10084
33.04	2.10248
33.05	2.11597
33.06	2.14426
33.07	2.13406
33.08	2.13999
33.09	2.11466
33.1	2.11531
33.11	2.12748
33.12	2.1265
33.13	2.13209
33.14	2.12748
33.15	2.09262
33.16	2.14558
33.17	2.11663
33.18	2.10248
33.19	2.10347
33.2	2.12255
33.21	2.13933
33.22	2.12716
33.23	2.12288
33.24	2.1367
33.25	2.12387
33.26	2.11893
33.27	2.11762
33.28	2.12288
33.29	2.10709
33.3	2.08571
33.31	2.1038
33.32	2.12091
33.33	2.1186
33.34	2.10544
33.35	2.10939
33.36	2.12189
33.37	2.11104
33.38	2.08505
33.39	2.1038
33.4	2.12452
33.41	2.12288
33.42	2.12485
33.43	2.12913
33.44	2.12156
33.45	2.10873
33.46	2.12683
33.47	2.13077
33.48	2.10906
33.49	2.10709
33.5	2.11696
33.51	2.14426
33.52	2.14656
33.53	2.11137
33.54	2.10314
33.55	2.10577
33.56	2.13439
33.57	2.15545
33.58	2.13637
33.59	2.11795
33.6	2.14426
33.61	2.12156
33.62	2.12156
33.63	2.12025
33.64	2.13637
33.65	2.11597
33.66	2.12058
33.67	2.10314
33.68	2.12321
33.69	2.12683
33.7	2.12123
33.71	2.11729
33.72	2.12748
33.73	2.11038
33.74	2.11663
33.75	2.14229
33.76	2.1436
33.77	2.10775
33.78	2.12485
33.79	2.14558
33.8	2.14097
33.81	2.14262
33.82	2.12716
33.83	2.10873
33.84	2.10939
33.85	2.114
33.86	2.11202
33.87	2.10216
33.88	2.114
33.89	2.12979
33.9	2.12321
33.91	2.11202
33.92	2.13439
33.93	2.11071
33.94	2.12847
33.95	2.13538
33.96	2.11498
33.97	2.12156
33.98	2.11531
33.99	2.11959
34	2.12518
34.01	2.13999
34.02	2.13604
34.03	2.14393
34.04	2.13735
34.05	2.13867
34.06	2.1515
34.07	2.15512
34.08	2.13275
34.09	2.10413
34.1	2.11071
34.11	2.14591
34.12	2.14722
34.13	2.11334
34.14	2.14097
34.15	2.11564
34.16	2.09064
34.17	2.12551
34.18	2.12551
34.19	2.12485
34.2	2.12091
34.21	2.11268
34.22	2.11301
34.23	2.12617
34.24	2.11762
34.25	2.10906
34.26	2.11367
34.27	2.11531
34.28	2.12485
34.29	2.10347
34.3	2.10577
34.31	2.09656
34.32	2.13143
34.33	2.10841
34.34	2.12354
34.35	2.12946
34.36	2.12617
34.37	2.12387
34.38	2.13406
34.39	2.1288
34.4	2.14295
34.41	2.14624
34.42	2.12255
34.43	2.13801
34.44	2.13768
34.45	2.11827
34.46	2.16433
34.47	2.15841
34.48	2.12551
34.49	2.14064
34.5	2.12847
34.51	2.11104
34.52	2.12814
34.53	2.11235
34.54	2.12222
34.55	2.13999
34.56	2.10841
34.57	2.12781
34.58	2.11795
34.59	2.14492
34.6	2.12452
34.61	2.13209
34.62	2.11564
34.63	2.10808
34.64	2.10873
34.65	2.11827
34.66	2.12189
34.67	2.10906
34.68	2.13143
34.69	2.12288
34.7	2.11893
34.71	2.12814
34.72	2.14722
34.73	2.12288
34.74	2.11005
34.75	2.12189
34.76	2.13012
34.77	2.12091
34.78	2.1288
34.79	2.13406
34.8	2.13637
34.81	2.14558
34.82	2.14624
34.83	2.13702
34.84	2.11466
34.85	2.14031
34.86	2.16137
34.87	2.11268
34.88	2.12584
34.89	2.10742
34.9	2.11005
34.91	2.12255
34.92	2.11235
34.93	2.12913
34.94	2.12485
34.95	2.11202
34.96	2.13209
34.97	2.13406
34.98	2.13209
34.99	2.13439
35	2.13538
35.01	2.13209
35.02	2.13374
35.03	2.15939
35.04	2.12683
35.05	2.13571
35.06	2.13702
35.07	2.11169
35.08	2.1242
35.09	2.11762
35.1	2.10347
35.11	2.10939
35.12	2.0913
35.13	2.14327
35.14	2.114
35.15	2.12683
35.16	2.12025
35.17	2.1242
35.18	2.11038
35.19	2.10643
35.2	2.14031
35.21	2.12847
35.22	2.11301
35.23	2.14854
35.24	2.12551
35.25	2.11235
35.26	2.08669
35.27	2.11202
35.28	2.12518
35.29	2.14262
35.3	2.1515
35.31	2.13768
35.32	2.13045
35.33	2.14327
35.34	2.11137
35.35	2.11202
35.36	2.10939
35.37	2.13176
35.38	2.11104
35.39	2.10709
35.4	2.13538
35.41	2.12913
35.42	2.13768
35.43	2.12123
35.44	2.11729
35.45	2.11235
35.46	2.11795
35.47	2.14327
35.48	2.14656
35.49	2.14722
35.5	2.11169
35.51	2.11762
35.52	2.1311
35.53	2.13933
35.54	2.16104
35.55	2.14163
35.56	2.12222
35.57	2.11466
35.58	2.11729
35.59	2.08768
35.6	2.10084
35.61	2.10183
35.62	2.12584
35.63	2.13209
35.64	2.11926
35.65	2.10347
35.66	2.13439
35.67	2.12716
35.68	2.12518
35.69	2.12321
35.7	2.12123
35.71	2.13834
35.72	2.13801
35.73	2.13966
35.74	2.12913
35.75	2.12058
35.76	2.13801
35.77	2.10775
35.78	2.13209
35.79	2.11235
35.8	2.13867
35.81	2.12452
35.82	2.11959
35.83	2.1413
35.84	2.14656
35.85	2.14788
35.86	2.15841
35.87	2.15117
35.88	2.12551
35.89	2.12683
35.9	2.12452
35.91	2.14722
35.92	2.14097
35.93	2.10216
35.94	2.13077
35.95	2.11992
35.96	2.12058
35.97	2.11762
35.98	2.11005
35.99	2.11038
36	2.1288
36.01	2.13045
36.02	2.10873
36.03	2.14196
36.04	2.13341
36.05	2.10775
36.06	2.11038
36.07	2.1038
36.08	2.12091
36.09	2.13143
36.1	2.1311
36.11	2.10479
36.12	2.114
36.13	2.10512
36.14	2.12617
36.15	2.11564
36.16	2.13077
36.17	2.14722
36.18	2.1413
36.19	2.1288
36.2	2.12716
36.21	2.15479
36.22	2.14689
36.23	2.13209
36.24	2.114
36.25	2.12913
36.26	2.1413
36.27	2.14196
36.28	2.1186
36.29	2.12551
36.3	2.14722
36.31	2.13176
36.32	2.11235
36.33	2.12913
36.34	2.13012
36.35	2.11169
36.36	2.08538
36.37	2.11663
36.38	2.14656
36.39	2.13439
36.4	2.11005
36.41	2.12156
36.42	2.12222
36.43	2.12091
36.44	2.1186
36.45	2.10281
36.46	2.1367
36.47	2.14327
36.48	2.13045
36.49	2.09755
36.5	2.14558
36.51	2.1265
36.52	2.1288
36.53	2.11762
36.54	2.1265
36.55	2.10709
36.56	2.10709
36.57	2.09952
36.58	2.11762
36.59	2.13374
36.6	2.14591
36.61	2.12913
36.62	2.11663
36.63	2.14887
36.64	2.12091
36.65	2.14295
36.66	2.13966
36.67	2.11762
36.68	2.1242
36.69	2.13209
36.7	2.13077
36.71	2.12189
36.72	2.12617
36.73	2.1242
36.74	2.10808
36.75	2.12189
36.76	2.14492
36.77	2.14097
36.78	2.13275
36.79	2.14755
36.8	2.13045
36.81	2.12979
36.82	2.12058
36.83	2.13538
36.84	2.1515
36.85	2.12222
36.86	2.09393
36.87	2.11498
36.88	2.11827
36.89	2.12946
36.9	2.12551
36.91	2.10972
36.92	2.12156
36.93	2.10775
36.94	2.13702
36.95	2.11663
36.96	2.10709
36.97	2.10742
36.98	2.11992
36.99	2.11827
37	2.11301
37.01	2.1038
37.02	2.10972
37.03	2.11827
37.04	2.12354
37.05	2.1163
37.06	2.13472
37.07	2.12222
37.08	2.09294
37.09	2.12288
37.1	2.13308
37.11	2.11433
37.12	2.12551
37.13	2.12123
37.14	2.09952
37.15	2.14196
37.16	2.10051
37.17	2.12781
37.18	2.12913
37.19	2.12913
37.2	2.13472
37.21	2.11433
37.22	2.14327
37.23	2.13999
37.24	2.12255
37.25	2.12222
37.26	2.139
37.27	2.11334
37.28	2.13143
37.29	2.12518
37.3	2.12518
37.31	2.13505
37.32	2.12551
37.33	2.10512
37.34	2.10577
37.35	2.14295
37.36	2.15775
37.37	2.14459
37.38	2.14525
37.39	2.14031
37.4	2.15051
37.41	2.13933
37.42	2.1413
37.43	2.13077
37.44	2.14624
37.45	2.15413
37.46	2.12979
37.47	2.10577
37.48	2.13275
37.49	2.10347
37.5	2.11729
37.51	2.11433
37.52	2.11762
37.53	2.1288
37.54	2.1288
37.55	2.11005
37.56	2.12091
37.57	2.11729
37.58	2.12387
37.59	2.11564
37.6	2.13077
37.61	2.13143
37.62	2.14196
37.63	2.13045
37.64	2.13012
37.65	2.12683
37.66	2.11992
37.67	2.14229
37.68	2.12354
37.69	2.0936
37.7	2.12091
37.71	2.1242
37.72	2.1311
37.73	2.10117
37.74	2.09755
37.75	2.10281
37.76	2.10577
37.77	2.10742
37.78	2.09525
37.79	2.10446
37.8	2.11663
37.81	2.1436
37.82	2.11893
37.83	2.13275
37.84	2.13374
37.85	2.14196
37.86	2.13077
37.87	2.10018
37.88	2.12288
37.89	2.12518
37.9	2.12485
37.91	2.09327
37.92	2.13176
37.93	2.13077
37.94	2.12189
37.95	2.10183
37.96	2.1288
37.97	2.11663
37.98	2.13012
37.99	2.12222
38	2.09854
38.01	2.12847
38.02	2.13505
38.03	2.11498
38.04	2.16268
38.05	2.13176
38.06	2.11005
38.07	2.12584
38.08	2.1061
38.09	2.14064
38.1	2.14624
38.11	2.10841
38.12	2.12025
38.13	2.10939
38.14	2.12222
38.15	2.11104
38.16	2.1288
38.17	2.10413
38.18	2.10906
38.19	2.11433
38.2	2.13867
38.21	2.11367
38.22	2.11466
38.23	2.09064
38.24	2.10018
38.25	2.11235
38.26	2.11926
38.27	2.1561
38.28	2.11564
38.29	2.12156
38.3	2.12847
38.31	2.1163
38.32	2.13999
38.33	2.11104
38.34	2.14492
38.35	2.13045
38.36	2.11926
38.37	2.14426
38.38	2.13275
38.39	2.14327
38.4	2.07781
38.41	2.10676
38.42	2.16235
38.43	2.10775
38.44	2.12354
38.45	2.13472
38.46	2.10446
38.47	2.11104
38.48	2.1163
38.49	2.11235
38.5	2.11005
38.51	2.10084
38.52	2.10643
38.53	2.10841
38.54	2.15709
38.55	2.13604
38.56	2.12518
38.57	2.09525
38.58	2.11926
38.59	2.12683
38.6	2.12123
38.61	2.12255
38.62	2.12683
38.63	2.10742
38.64	2.12025
38.65	2.15183
38.66	2.139
38.67	2.11498
38.68	2.11959
38.69	2.09196
38.7	2.10446
38.71	2.11466
38.72	2.11696
38.73	2.10972
38.74	2.09985
38.75	2.10544
38.76	2.11729
38.77	2.12025
38.78	2.11235
38.79	2.1288
38.8	2.12716
38.81	2.11104
38.82	2.1242
38.83	2.10544
38.84	2.08702
38.85	2.11367
38.86	2.1265
38.87	2.12387
38.88	2.11202
38.89	2.13275
38.9	2.139
38.91	2.13406
38.92	2.12255
38.93	2.12847
38.94	2.11433
38.95	2.10479
38.96	2.11466
38.97	2.15709
38.98	2.13768
38.99	2.15084
39	2.11959
39.01	2.13406
39.02	2.12025
39.03	2.14295
39.04	2.14985
39.05	2.13143
39.06	2.11926
39.07	2.12452
39.08	2.13538
39.09	2.11696
39.1	2.1288
39.11	2.12091
39.12	2.10577
39.13	2.12814
39.14	2.1436
39.15	2.15545
39.16	2.13045
39.17	2.13768
39.18	2.11893
39.19	2.12748
39.2	2.13966
39.21	2.11893
39.22	2.13275
39.23	2.11926
39.24	2.14525
39.25	2.13012
39.26	2.10512
39.27	2.13571
39.28	2.14854
39.29	2.11334
39.3	2.12091
39.31	2.10446
39.32	2.12025
39.33	2.12091
39.34	2.1561
39.35	2.11893
39.36	2.12683
39.37	2.114
39.38	2.13242
39.39	2.14262
39.4	2.15841
39.41	2.1163
39.42	2.1163
39.43	2.1186
39.44	2.10018
39.45	2.12452
39.46	2.11696
39.47	2.13176
39.48	2.12091
39.49	2.14854
39.5	2.11992
39.51	2.12123
39.52	2.1265
39.53	2.11498
39.54	2.11597
39.55	2.12748
39.56	2.11992
39.57	2.12748
39.58	2.13571
39.59	2.10742
39.6	2.11893
39.61	2.10248
39.62	2.11038
39.63	2.12123
39.64	2.13077
39.65	2.13966
39.66	2.14064
39.67	2.1311
39.68	2.14624
39.69	2.12913
39.7	2.11498
39.71	2.12452
39.72	2.1367
39.73	2.13209
39.74	2.13406
39.75	2.12617
39.76	2.12716
39.77	2.11466
39.78	2.114
39.79	2.12683
39.8	2.1288
39.81	2.14262
39.82	2.10873
39.83	2.10643
39.84	2.12156
39.85	2.12288
39.86	2.10775
39.87	2.13999
39.88	2.11466
39.89	2.114
39.9	2.13439
39.91	2.11433
39.92	2.11762
39.93	2.11005
39.94	2.13571
39.95	2.11301
39.96	2.08965
39.97	2.13077
39.98	2.13768
39.99	2.14591
40	2.14327
40.01	2.09656
40.02	2.10479
40.03	2.11564
40.04	2.11169
40.05	2.14426
40.06	2.13077
40.07	2.15216
40.08	2.13077
40.09	2.11433
40.1	2.13801
40.11	2.12847
40.12	2.12913
40.13	2.13012
40.14	2.13505
40.15	2.11334
40.16	2.12946
40.17	2.10347
40.18	2.11959
40.19	2.13242
40.2	2.13933
40.21	2.11433
40.22	2.11466
40.23	2.12321
40.24	2.11564
40.25	2.11466
40.26	2.10873
40.27	2.15018
40.28	2.11367
40.29	2.10972
40.3	2.11235
40.31	2.11564
40.32	2.10544
40.33	2.11137
40.34	2.11597
40.35	2.13768
40.36	2.1265
40.37	2.12485
40.38	2.11104
40.39	2.1311
40.4	2.14196
40.41	2.12716
40.42	2.12551
40.43	2.11696
40.44	2.08933
40.45	2.10544
40.46	2.139
40.47	2.14229
40.48	2.09393
40.49	2.12847
40.5	2.12354
40.51	2.14492
40.52	2.13242
40.53	2.13077
40.54	2.10216
40.55	2.11564
40.56	2.12123
40.57	2.13472
40.58	2.13077
40.59	2.14788
40.6	2.15018
40.61	2.11663
40.62	2.12452
40.63	2.10873
40.64	2.16005
40.65	2.11466
40.66	2.12814
40.67	2.1061
40.68	2.11104
40.69	2.09952
40.7	2.13768
40.71	2.11498
40.72	2.13867
40.73	2.11827
40.74	2.11992
40.75	2.11169
40.76	2.0913
40.77	2.13341
40.78	2.13571
40.79	2.12551
40.8	2.12683
40.81	2.11663
40.82	2.12354
40.83	2.10643
40.84	2.12123
40.85	2.12617
40.86	2.12946
40.87	2.13143
40.88	2.11926
40.89	2.139
40.9	2.12485
40.91	2.12354
40.92	2.10775
40.93	2.1242
40.94	2.13505
40.95	2.15545
40.96	2.14031
40.97	2.13702
40.98	2.14064
40.99	2.14689
41	2.12847
41.01	2.13176
41.02	2.1163
41.03	2.10544
41.04	2.11893
41.05	2.12058
41.06	2.1311
41.07	2.09656
41.08	2.1265
41.09	2.12748
41.1	2.11367
41.11	2.11038
41.12	2.14295
41.13	2.1413
41.14	2.0913
41.15	2.11531
41.16	2.11531
41.17	2.13045
41.18	2.12979
41.19	2.13406
41.2	2.13505
41.21	2.12288
41.22	2.11959
41.23	2.13374
41.24	2.13768
41.25	2.14196
41.26	2.11762
41.27	2.10347
41.28	2.11498
41.29	2.10742
41.3	2.14821
41.31	2.14064
41.32	2.12058
41.33	2.13242
41.34	2.11564
41.35	2.12156
41.36	2.14393
41.37	2.13801
41.38	2.13077
41.39	2.114
41.4	2.10643
41.41	2.1311
41.42	2.14064
41.43	2.11301
41.44	2.10841
41.45	2.09525
41.46	2.12814
41.47	2.15841
41.48	2.13538
41.49	2.12025
41.5	2.13045
41.51	2.139
41.52	2.14821
41.53	2.11795
41.54	2.13374
41.55	2.12716
41.56	2.11663
41.57	2.13999
41.58	2.11531
41.59	2.12913
41.6	2.15775
41.61	2.12058
41.62	2.10084
41.63	2.11762
41.64	2.12847
41.65	2.16564
41.66	2.11893
41.67	2.11992
41.68	2.13702
41.69	2.11202
41.7	2.12617
41.71	2.10413
41.72	2.11893
41.73	2.14097
41.74	2.11005
41.75	2.11202
41.76	2.13374
41.77	2.13077
41.78	2.12222
41.79	2.14064
41.8	2.14689
41.81	2.15018
41.82	2.09854
41.83	2.11795
41.84	2.15117
41.85	2.13801
41.86	2.11893
41.87	2.10709
41.88	2.13143
41.89	2.12946
41.9	2.11466
41.91	2.11597
41.92	2.1163
41.93	2.14163
41.94	2.14097
41.95	2.15018
41.96	2.139
41.97	2.11301
41.98	2.0959
41.99	2.12222
42	2.12222
42.01	2.11005
42.02	2.1163
42.03	2.09393
42.04	2.12748
42.05	2.13999
42.06	2.10281
42.07	2.10446
42.08	2.14887
42.09	2.13571
42.1	2.14722
42.11	2.12617
42.12	2.13768
42.13	2.16893
42.14	2.13505
42.15	2.12518
42.16	2.12584
42.17	2.10906
42.18	2.09788
42.19	2.11334
42.2	2.11104
42.21	2.10906
42.22	2.12222
42.23	2.12518
42.24	2.12518
42.25	2.12781
42.26	2.11762
42.27	2.10512
42.28	2.13604
42.29	2.12485
42.3	2.12025
42.31	2.12913
42.32	2.13341
42.33	2.13209
42.34	2.13966
42.35	2.13966
42.36	2.16367
42.37	2.14426
42.38	2.11827
42.39	2.13505
42.4	2.1515
42.41	2.13143
42.42	2.139
42.43	2.1242
42.44	2.11038
42.45	2.12025
42.46	2.12288
42.47	2.11367
42.48	2.12847
42.49	2.11959
42.5	2.11729
42.51	2.11235
42.52	2.13374
42.53	2.14953
42.54	2.10577
42.55	2.10972
42.56	2.1265
42.57	2.10906
42.58	2.12683
42.59	2.14229
42.6	2.114
42.61	2.13077
42.62	2.12781
42.63	2.11005
42.64	2.12255
42.65	2.14163
42.66	2.09426
42.67	2.11169
42.68	2.10544
42.69	2.16466
42.7	2.14064
42.71	2.10183
42.72	2.12584
42.73	2.1265
42.74	2.09163
42.75	2.10051
42.76	2.12288
42.77	2.13933
42.78	2.13242
42.79	2.14624
42.8	2.13867
42.81	2.14525
42.82	2.15314
42.83	2.11926
42.84	2.11202
42.85	2.11992
42.86	2.11663
42.87	2.10051
42.88	2.11104
42.89	2.11564
42.9	2.13768
42.91	2.12354
42.92	2.13505
42.93	2.13439
42.94	2.11827
42.95	2.1265
42.96	2.10841
42.97	2.11301
42.98	2.13242
42.99	2.10841
43	2.12189
43.01	2.12814
43.02	2.08571
43.03	2.11005
43.04	2.15512
43.05	2.14624
43.06	2.10413
43.07	2.12683
43.08	2.12222
43.09	2.1038
43.1	2.14722
43.11	2.15906
43.12	2.13472
43.13	2.12222
43.14	2.11597
43.15	2.12979
43.16	2.14163
43.17	2.13374
43.18	2.14821
43.19	2.13538
43.2	2.12814
43.21	2.12354
43.22	2.13308
43.23	2.12814
43.24	2.1061
43.25	2.14459
43.26	2.139
43.27	2.12288
43.28	2.13275
43.29	2.12189
43.3	2.12584
43.31	2.13768
43.32	2.13735
43.33	2.12617
43.34	2.10709
43.35	2.11663
43.36	2.11433
43.37	2.14196
43.38	2.13702
43.39	2.11992
43.4	2.18308
43.41	2.13209
43.42	2.13176
43.43	2.1436
43.44	2.11926
43.45	2.1242
43.46	2.09887
43.47	2.12913
43.48	2.12683
43.49	2.14393
43.5	2.13374
43.51	2.10808
43.52	2.13275
43.53	2.11367
43.54	2.13439
43.55	2.13867
43.56	2.14229
43.57	2.15249
43.58	2.1242
43.59	2.1038
43.6	2.15216
43.61	2.12321
43.62	2.12913
43.63	2.11992
43.64	2.10939
43.65	2.09426
43.66	2.11827
43.67	2.09262
43.68	2.0936
43.69	2.1163
43.7	2.14624
43.71	2.139
43.72	2.12485
43.73	2.10676
43.74	2.1186
43.75	2.12156
43.76	2.09459
43.77	2.10446
43.78	2.15281
43.79	2.14064
43.8	2.10314
43.81	2.12058
43.82	2.10939
43.83	2.13801
43.84	2.13505
43.85	2.13209
43.86	2.14821
43.87	2.12683
43.88	2.14196
43.89	2.11268
43.9	2.12058
43.91	2.11367
43.92	2.09985
43.93	2.10216
43.94	2.12485
43.95	2.12551
43.96	2.1436
43.97	2.12748
43.98	2.12387
43.99	2.11959
44	2.11696
44.01	2.12025
44.02	2.15347
44.03	2.14163
44.04	2.11729
44.05	2.12617
44.06	2.12584
44.07	2.10577
44.08	2.12387
44.09	2.10709
44.1	2.10347
44.11	2.12748
44.12	2.11959
44.13	2.13834
44.14	2.12288
44.15	2.10544
44.16	2.10841
44.17	2.10939
44.18	2.11137
44.19	2.14295
44.2	2.12222
44.21	2.12748
44.22	2.12189
44.23	2.12814
44.24	2.11367
44.25	2.10906
44.26	2.10347
44.27	2.13242
44.28	2.13801
44.29	2.10314
44.3	2.11564
44.31	2.08735
44.32	2.11466
44.33	2.12584
44.34	2.11926
44.35	2.15808
44.36	2.13735
44.37	2.12156
44.38	2.11926
44.39	2.14229
44.4	2.12617
44.41	2.10248
44.42	2.10347
44.43	2.1265
44.44	2.07683
44.45	2.09229
44.46	2.14722
44.47	2.13933
44.48	2.13966
44.49	2.1765
44.5	2.13308
44.51	2.10775
44.52	2.12716
44.53	2.14788
44.54	2.14558
44.55	2.11992
44.56	2.11169
44.57	2.12452
44.58	2.16071
44.59	2.13045
44.6	2.14492
44.61	2.13999
44.62	2.1288
44.63	2.13801
44.64	2.10873
44.65	2.13735
44.66	2.14196
44.67	2.11729
44.68	2.13834
44.69	2.12584
44.7	2.12091
44.71	2.13604
44.72	2.12452
44.73	2.15183
44.74	2.11202
44.75	2.11663
44.76	2.1163
44.77	2.07814
44.78	2.10841
44.79	2.12551
44.8	2.13637
44.81	2.16729
44.82	2.13999
44.83	2.11795
44.84	2.14295
44.85	2.12452
44.86	2.10577
44.87	2.1311
44.88	2.14426
44.89	2.12485
44.9	2.11762
44.91	2.10117
44.92	2.11531
44.93	2.12979
44.94	2.13045
44.95	2.12091
44.96	2.10841
44.97	2.12485
44.98	2.13571
44.99	2.14788
45	2.13143
45.01	2.14097
45.02	2.15084
45.03	2.13834
45.04	2.11959
45.05	2.10413
45.06	2.11235
45.07	2.09854
45.08	2.13768
45.09	2.114
45.1	2.14262
45.11	2.13834
45.12	2.12518
45.13	2.10972
45.14	2.13933
45.15	2.13012
45.16	2.13275
45.17	2.14722
45.18	2.09952
45.19	2.11992
45.2	2.10841
45.21	2.13702
45.22	2.11466
45.23	2.12781
45.24	2.10873
45.25	2.1061
45.26	2.09854
45.27	2.12814
45.28	2.1163
45.29	2.11959
45.3	2.11433
45.31	2.1367
45.32	2.11729
45.33	2.13472
45.34	2.13374
45.35	2.10347
45.36	2.11827
45.37	2.10512
45.38	2.11466
45.39	2.14689
45.4	2.13538
45.41	2.10643
45.42	2.10544
45.43	2.1242
45.44	2.13867
45.45	2.12025
45.46	2.12551
45.47	2.11104
45.48	2.12387
45.49	2.13374
45.5	2.14196
45.51	2.12683
45.52	2.12551
45.53	2.13505
45.54	2.11367
45.55	2.1288
45.56	2.11367
45.57	2.08933
45.58	2.10939
45.59	2.13801
45.6	2.13999
45.61	2.12716
45.62	2.10709
45.63	2.12025
45.64	2.12452
45.65	2.12551
45.66	2.11893
45.67	2.09919
45.68	2.09952
45.69	2.12222
45.7	2.11531
45.71	2.13505
45.72	2.16104
45.73	2.10709
45.74	2.12748
45.75	2.13604
45.76	2.12387
45.77	2.12156
45.78	2.12189
45.79	2.12979
45.8	2.12321
45.81	2.12814
45.82	2.11696
45.83	2.10314
45.84	2.10183
45.85	2.1413
45.86	2.1242
45.87	2.13209
45.88	2.11466
45.89	2.09919
45.9	2.11202
45.91	2.12091
45.92	2.11926
45.93	2.12387
45.94	2.1367
45.95	2.14953
45.96	2.16729
45.97	2.13242
45.98	2.12189
45.99	2.14426
46	2.12321
46.01	2.12913
46.02	2.12551
46.03	2.1367
46.04	2.14985
46.05	2.11038
46.06	2.10084
46.07	2.12321
46.08	2.1186
46.09	2.09985
46.1	2.11893
46.11	2.12551
46.12	2.13242
46.13	2.14525
46.14	2.12288
46.15	2.1163
46.16	2.12354
46.17	2.10873
46.18	2.0913
46.19	2.11531
46.2	2.11926
46.21	2.10479
46.22	2.12387
46.23	2.10183
46.24	2.13374
46.25	2.12354
46.26	2.14262
46.27	2.12255
46.28	2.1186
46.29	2.13143
46.3	2.10577
46.31	2.11498
46.32	2.11827
46.33	2.11564
46.34	2.11827
46.35	2.11466
46.36	2.10216
46.37	2.11301
46.38	2.12913
46.39	2.12452
46.4	2.12716
46.41	2.14196
46.42	2.10709
46.43	2.14295
46.44	2.11104
46.45	2.12485
46.46	2.14492
46.47	2.12683
46.48	2.12781
46.49	2.114
46.5	2.13472
46.51	2.11104
46.52	2.11663
46.53	2.14591
46.54	2.12321
46.55	2.10643
46.56	2.13933
46.57	2.12156
46.58	2.12255
46.59	2.11137
46.6	2.1015
46.61	2.11268
46.62	2.10841
46.63	2.10775
46.64	2.10347
46.65	2.11696
46.66	2.15742
46.67	2.14558
46.68	2.11992
46.69	2.11202
46.7	2.10906
46.71	2.13242
46.72	2.1288
46.73	2.14229
46.74	2.11301
46.75	2.1367
46.76	2.11169
46.77	2.11498
46.78	2.12387
46.79	2.10117
46.8	2.10939
46.81	2.12189
46.82	2.12946
46.83	2.13604
46.84	2.1242
46.85	2.1265
46.86	2.16071
46.87	2.13045
46.88	2.13176
46.89	2.11071
46.9	2.10314
46.91	2.12058
46.92	2.12255
46.93	2.10709
46.94	2.10117
46.95	2.08735
46.96	2.12321
46.97	2.12091
46.98	2.13702
46.99	2.13143
47	2.11169
47.01	2.13045
47.02	2.09821
47.03	2.09755
47.04	2.10183
47.05	2.12617
47.06	2.12617
47.07	2.10742
47.08	2.12255
47.09	2.12979
47.1	2.10676
47.11	2.13702
47.12	2.1311
47.13	2.11564
47.14	2.12387
47.15	2.13143
47.16	2.11597
47.17	2.13702
47.18	2.13374
47.19	2.12058
47.2	2.13571
47.21	2.1186
47.22	2.12781
47.23	2.13045
47.24	2.12288
47.25	2.11169
47.26	2.114
47.27	2.11071
47.28	2.13538
47.29	2.13209
47.3	2.12518
47.31	2.15314
47.32	2.11696
47.33	2.13045
47.34	2.10183
47.35	2.1367
47.36	2.11433
47.37	2.14624
47.38	2.1242
47.39	2.13077
47.4	2.11169
47.41	2.12551
47.42	2.15972
47.43	2.09722
47.44	2.12781
47.45	2.1515
47.46	2.13341
47.47	2.13242
47.48	2.13176
47.49	2.12354
47.5	2.12189
47.51	2.11597
47.52	2.12518
47.53	2.12617
47.54	2.12354
47.55	2.11827
47.56	2.12683
47.57	2.11696
47.58	2.114
47.59	2.11696
47.6	2.1288
47.61	2.14031
47.62	2.11729
47.63	2.1288
47.64	2.11729
47.65	2.09393
47.66	2.11137
47.67	2.11959
47.68	2.14327
47.69	2.12781
47.7	2.13933
47.71	2.15446
47.72	2.10512
47.73	2.12584
47.74	2.1311
47.75	2.10544
47.76	2.11268
47.77	2.1288
47.78	2.1515
47.79	2.13143
47.8	2.11005
47.81	2.10873
47.82	2.12584
47.83	2.1311
47.84	2.10281
47.85	2.12288
47.86	2.13505
47.87	2.11564
47.88	2.1413
47.89	2.14624
47.9	2.1311
47.91	2.15512
47.92	2.13735
47.93	2.13472
47.94	2.139
47.95	2.10216
47.96	2.11268
47.97	2.1311
47.98	2.15709
47.99	2.11268
48	2.10216
48.01	2.12255
48.02	2.12584
48.03	2.13637
48.04	2.14887
48.05	2.13604
48.06	2.10577
48.07	2.13505
48.08	2.1242
48.09	2.12946
48.1	2.11137
48.11	2.1186
48.12	2.13242
48.13	2.13637
48.14	2.1413
48.15	2.13702
48.16	2.13077
48.17	2.13867
48.18	2.14854
48.19	2.12123
48.2	2.11729
48.21	2.12847
48.22	2.10676
48.23	2.11071
48.24	2.11235
48.25	2.1061
48.26	2.0913
48.27	2.14163
48.28	2.16104
48.29	2.14393
48.3	2.13999
48.31	2.13933
48.32	2.1311
48.33	2.14097
48.34	2.11959
48.35	2.13637
48.36	2.13637
48.37	2.14953
48.38	2.11202
48.39	2.10841
48.4	2.1163
48.41	2.1061
48.42	2.1311
48.43	2.09755
48.44	2.09656
48.45	2.11696
48.46	2.14426
48.47	2.11104
48.48	2.14755
48.49	2.11005
48.5	2.11466
48.51	2.14755
48.52	2.1242
48.53	2.10939
48.54	2.10544
48.55	2.14722
48.56	2.12716
48.57	2.09229
48.58	2.13637
48.59	2.13999
48.6	2.1061
48.61	2.13604
48.62	2.13702
48.63	2.1038
48.64	2.12781
48.65	2.11038
48.66	2.11367
48.67	2.12222
48.68	2.13768
48.69	2.11827
48.7	2.12683
48.71	2.11005
48.72	2.1311
48.73	2.13637
48.74	2.12617
48.75	2.13439
48.76	2.12814
48.77	2.14985
48.78	2.12518
48.79	2.13834
48.8	2.15216
48.81	2.12814
48.82	2.12781
48.83	2.11992
48.84	2.09558
48.85	2.08735
48.86	2.13406
48.87	2.1311
48.88	2.12025
48.89	2.11564
48.9	2.08735
48.91	2.12847
48.92	2.12485
48.93	2.10709
48.94	2.09689
48.95	2.12683
48.96	2.1413
48.97	2.13275
48.98	2.13176
48.99	2.13735
49	2.14064
49.01	2.11827
49.02	2.11334
49.03	2.08834
49.04	2.16663
49.05	2.1436
49.06	2.09722
49.07	2.14031
49.08	2.14887
49.09	2.12189
49.1	2.13933
49.11	2.1288
49.12	2.12847
49.13	2.13966
49.14	2.15742
49.15	2.13045
49.16	2.11202
49.17	2.13966
49.18	2.15446
49.19	2.15643
49.2	2.1311
49.21	2.1288
49.22	2.12354
49.23	2.11992
49.24	2.14097
49.25	2.12946
49.26	2.13735
49.27	2.11169
49.28	2.13176
49.29	2.14097
49.3	2.11104
49.31	2.10709
49.32	2.10742
49.33	2.10709
49.34	2.10314
49.35	2.12485
49.36	2.13801
49.37	2.13143
49.38	2.12847
49.39	2.11696
49.4	2.10808
49.41	2.1061
49.42	2.11367
49.43	2.10479
49.44	2.12354
49.45	2.12913
49.46	2.14985
49.47	2.10314
49.48	2.11433
49.49	2.12716
49.5	2.13242
49.51	2.114
49.52	2.11301
49.53	2.10347
49.54	2.11959
49.55	2.1413
49.56	2.14525
49.57	2.11827
49.58	2.14788
49.59	2.14558
49.6	2.12748
49.61	2.12387
49.62	2.10512
49.63	2.1163
49.64	2.10544
49.65	2.12058
49.66	2.11268
49.67	2.11827
49.68	2.12551
49.69	2.11564
49.7	2.11926
49.71	2.12946
49.72	2.12321
49.73	2.14031
49.74	2.13571
49.75	2.1015
49.76	2.11795
49.77	2.139
49.78	2.14953
49.79	2.10248
49.8	2.11169
49.81	2.12222
49.82	2.11564
49.83	2.12814
49.84	2.12518
49.85	2.14985
49.86	2.14591
49.87	2.13604
49.88	2.11663
49.89	2.09426
49.9	2.1265
49.91	2.14722
49.92	2.11137
49.93	2.12551
49.94	2.12288
49.95	2.11498
49.96	2.13768
49.97	2.11334
49.98	2.12255
49.99	2.11367
50	2.13143
