"BIO-KINE ASCII FILE"
"_COMMENT"	"MOS-500 Spectrometer"
"_COMMENT"	"Kinetics measurement"
"_COMMENT"	"Y Unit : Volt,  X Unit : s"
"_COMMENT"	"Excitation wavelength : 380 nm"
"_COMMENT"	"Fentes bandwidth =  1 nm"
"_COMMENT"	"HV= 625V"
"_COMMENT"	"Timebase  1 =  .01 s   3001 pts"
"_SFM"	"SFM-400 /S  Advanced mode"
"_SFM"	"Ratio : S1: 2.5, S2: 0, S3: 0, S4: 1"
"_SFM"	"Content : S1: , S2: , S3: , S4:"
"_SFM"	"Concentration : S1: , S2: , S3: , S4:"
"_SFM"	"Total volume : 209 µl  Flow : 3.5 mL/s"
"_SFM"	"Acquisition start :  10 ms before stop"
"_SFM"	"cuve=FC-15, s1=10 ml , s2=10 ml , s3=10 ml , s4=1.9 ml"
"_UNITX"	"s"
"_UNITY"	"Volt"
"_DELTAX"	0
"_DATA"
1e-300	6.1638
0.01	6.56315
0.02	6.83158
0.03	6.86776
0.04	6.85888
0.05	6.87007
0.06	6.87566
0.07	6.87237
0.08	6.87664
0.09	6.88355
0.1	6.88915
0.11	6.89572
0.12	6.88915
0.13	6.88487
0.14	6.89112
0.15	6.89507
0.16	6.89474
0.17	6.90099
0.18	6.87961
0.19	6.88947
0.2	6.89079
0.21	6.88125
0.22	6.88454
0.23	6.88553
0.24	6.8727
0.25	6.8773
0.26	6.87171
0.27	6.86151
0.28	6.86283
0.29	6.85592
0.3	6.8546
0.31	6.85691
0.32	6.84967
0.33	6.8398
0.34	6.84112
0.35	6.84145
0.36	6.82763
0.37	6.82302
0.38	6.82533
0.39	6.81349
0.4	6.80855
0.41	6.80789
0.42	6.81052
0.43	6.80033
0.44	6.80296
0.45	6.79079
0.46	6.78684
0.47	6.77368
0.48	6.76842
0.49	6.77171
0.5	6.76579
0.51	6.76085
0.52	6.77269
0.53	6.74967
0.54	6.74243
0.55	6.74605
0.56	6.74506
0.57	6.74375
0.58	6.73092
0.59	6.73125
0.6	6.72302
0.61	6.71052
0.62	6.7069
0.63	6.7
0.64	6.69473
0.65	6.69473
0.66	6.69309
0.67	6.69046
0.68	6.68026
0.69	6.68092
0.7	6.67105
0.71	6.65657
0.72	6.65855
0.73	6.6592
0.74	6.65098
0.75	6.64111
0.76	6.64309
0.77	6.64144
0.78	6.62434
0.79	6.6319
0.8	6.6273
0.81	6.62434
0.82	6.61447
0.83	6.6092
0.84	6.59769
0.85	6.59078
0.86	6.59045
0.87	6.59111
0.88	6.58881
0.89	6.574
0.9	6.57006
0.91	6.56282
0.92	6.55525
0.93	6.5592
0.94	6.55493
0.95	6.54604
0.96	6.5421
0.97	6.53617
0.98	6.53782
0.99	6.52992
1	6.52729
1.01	6.52039
1.02	6.51249
1.03	6.51479
1.04	6.51512
1.05	6.51249
1.06	6.51183
1.07	6.49933
1.08	6.49407
1.09	6.48979
1.1	6.47861
1.11	6.47269
1.12	6.47992
1.13	6.46315
1.14	6.45788
1.15	6.46512
1.16	6.45591
1.17	6.44703
1.18	6.4444
1.19	6.44275
1.2	6.42926
1.21	6.42828
1.22	6.42367
1.23	6.41808
1.24	6.4138
1.25	6.40722
1.26	6.40361
1.27	6.39933
1.28	6.39703
1.29	6.39374
1.3	6.38847
1.31	6.37696
1.32	6.37367
1.33	6.37564
1.34	6.36117
1.35	6.35953
1.36	6.34374
1.37	6.34538
1.38	6.33946
1.39	6.34374
1.4	6.33749
1.41	6.31841
1.42	6.31676
1.43	6.31051
1.44	6.30196
1.45	6.30262
1.46	6.29669
1.47	6.29373
1.48	6.28321
1.49	6.27564
1.5	6.26643
1.51	6.27202
1.52	6.26018
1.53	6.25525
1.54	6.24077
1.55	6.23946
1.56	6.22827
1.57	6.23222
1.58	6.22334
1.59	6.21215
1.6	6.2138
1.61	6.22038
1.62	6.20097
1.63	6.20393
1.64	6.19998
1.65	6.18485
1.66	6.18814
1.67	6.1832
1.68	6.17103
1.69	6.16906
1.7	6.15985
1.71	6.15459
1.72	6.14834
1.73	6.14505
1.74	6.14274
1.75	6.14603
1.76	6.13485
1.77	6.12597
1.78	6.11281
1.79	6.11577
1.8	6.11149
1.81	6.098
1.82	6.09439
1.83	6.08945
1.84	6.08748
1.85	6.07893
1.86	6.07366
1.87	6.07366
1.88	6.07399
1.89	6.06314
1.9	6.05754
1.91	6.04998
1.92	6.0434
1.93	6.03452
1.94	6.03517
1.95	6.02531
1.96	6.02136
1.97	6.01511
1.98	6.01577
1.99	6.0184
2	6.01182
2.01	5.99603
2.02	5.98748
2.03	5.9832
2.04	5.97136
2.05	5.97432
2.06	5.96708
2.07	5.95951
2.08	5.95655
2.09	5.95096
2.1	5.95096
2.11	5.9434
2.12	5.92925
2.13	5.9332
2.14	5.9332
2.15	5.92168
2.16	5.90951
2.17	5.90688
2.18	5.90655
2.19	5.89997
2.2	5.89635
2.21	5.88912
2.22	5.88418
2.23	5.8855
2.24	5.87497
2.25	5.87102
2.26	5.86708
2.27	5.86445
2.28	5.85491
2.29	5.85096
2.3	5.84898
2.31	5.8503
2.32	5.84339
2.33	5.83385
2.34	5.82826
2.35	5.8174
2.36	5.81773
2.37	5.81181
2.38	5.81313
2.39	5.79964
2.4	5.80063
2.41	5.79569
2.42	5.79569
2.43	5.78418
2.44	5.7753
2.45	5.77365
2.46	5.77036
2.47	5.76477
2.48	5.76346
2.49	5.75786
2.5	5.75227
2.51	5.74471
2.52	5.73615
2.53	5.73418
2.54	5.73155
2.55	5.72168
2.56	5.71609
2.57	5.71938
2.58	5.7049
2.59	5.70424
2.6	5.69635
2.61	5.6878
2.62	5.67858
2.63	5.67727
2.64	5.67069
2.65	5.6697
2.66	5.65457
2.67	5.64108
2.68	5.63779
2.69	5.64043
2.7	5.63121
2.71	5.62727
2.72	5.62102
2.73	5.61575
2.74	5.6174
2.75	5.61082
2.76	5.60227
2.77	5.59667
2.78	5.59733
2.79	5.58812
2.8	5.57759
2.81	5.57891
2.82	5.56674
2.83	5.56641
2.84	5.56444
2.85	5.55884
2.86	5.54996
2.87	5.53911
2.88	5.54273
2.89	5.54799
2.9	5.53812
2.91	5.53253
2.92	5.5118
2.93	5.5095
2.94	5.50786
2.95	5.51049
2.96	5.5049
2.97	5.50062
2.98	5.49075
2.99	5.49404
3	5.48088
3.01	5.47792
3.02	5.47266
3.03	5.47463
3.04	5.46871
3.05	5.45687
3.06	5.45588
3.07	5.44503
3.08	5.44667
3.09	5.43943
3.1	5.44174
3.11	5.42627
3.12	5.41608
3.13	5.41476
3.14	5.40818
3.15	5.40851
3.16	5.41509
3.17	5.40127
3.18	5.39831
3.19	5.39206
3.2	5.39009
3.21	5.37989
3.22	5.37463
3.23	5.3743
3.24	5.36575
3.25	5.36344
3.26	5.36969
3.27	5.35588
3.28	5.34338
3.29	5.34042
3.3	5.33515
3.31	5.33055
3.32	5.32726
3.33	5.32134
3.34	5.31936
3.35	5.3118
3.36	5.30949
3.37	5.30061
3.38	5.29864
3.39	5.30357
3.4	5.29009
3.41	5.28088
3.42	5.28252
3.43	5.27134
3.44	5.27463
3.45	5.2687
3.46	5.2641
3.47	5.25686
3.48	5.26081
3.49	5.24732
3.5	5.24666
3.51	5.24107
3.52	5.23943
3.53	5.24041
3.54	5.23219
3.55	5.22429
3.56	5.21739
3.57	5.20818
3.58	5.21574
3.59	5.2141
3.6	5.20719
3.61	5.19041
3.62	5.18285
3.63	5.19206
3.64	5.18646
3.65	5.18087
3.66	5.17199
3.67	5.17495
3.68	5.16607
3.69	5.16837
3.7	5.16114
3.71	5.15028
3.72	5.15752
3.73	5.14863
3.74	5.13613
3.75	5.1335
3.76	5.1289
3.77	5.12462
3.78	5.11278
3.79	5.12034
3.8	5.11837
3.81	5.11377
3.82	5.1108
3.83	5.09436
3.84	5.09633
3.85	5.09567
3.86	5.10126
3.87	5.08547
3.88	5.08087
3.89	5.07824
3.9	5.07594
3.91	5.07758
3.92	5.06541
3.93	5.05982
3.94	5.06047
3.95	5.04797
3.96	5.05126
3.97	5.0483
3.98	5.04041
3.99	5.04107
4	5.03054
4.01	5.03416
4.02	5.0256
4.03	5.02363
4.04	5.0187
4.05	5.01738
4.06	5.01343
4.07	5.0085
4.08	5.00324
4.09	4.99863
4.1	4.99633
4.11	4.98514
4.12	4.97692
4.13	4.98646
4.14	4.98185
4.15	4.97396
4.16	4.96771
4.17	4.96738
4.18	4.96376
4.19	4.95159
4.2	4.95126
4.21	4.95126
4.22	4.94929
4.23	4.94172
4.24	4.92988
4.25	4.92692
4.26	4.91869
4.27	4.91935
4.28	4.91836
4.29	4.90718
4.3	4.90389
4.31	4.8983
4.32	4.89303
4.33	4.89205
4.34	4.896
4.35	4.88744
4.36	4.8779
4.37	4.87889
4.38	4.87889
4.39	4.86836
4.4	4.86738
4.41	4.86639
4.42	4.8631
4.43	4.85586
4.44	4.84501
4.45	4.84665
4.46	4.8427
4.47	4.83613
4.48	4.83876
4.49	4.83744
4.5	4.82527
4.51	4.82856
4.52	4.82165
4.53	4.82395
4.54	4.81836
4.55	4.81507
4.56	4.81014
4.57	4.80158
4.58	4.8006
4.59	4.79698
4.6	4.79172
4.61	4.78645
4.62	4.78777
4.63	4.7802
4.64	4.77658
4.65	4.77231
4.66	4.76902
4.67	4.76606
4.68	4.76277
4.69	4.76112
4.7	4.75421
4.71	4.75125
4.72	4.75586
4.73	4.73842
4.74	4.73546
4.75	4.73349
4.76	4.7325
4.77	4.7279
4.78	4.72921
4.79	4.73152
4.8	4.7279
4.81	4.72527
4.82	4.70981
4.83	4.71375
4.84	4.71145
4.85	4.70487
4.86	4.70191
4.87	4.69731
4.88	4.69073
4.89	4.69928
4.9	4.69566
4.91	4.68974
4.92	4.6904
4.93	4.6802
4.94	4.67691
4.95	4.67888
4.96	4.66869
4.97	4.66145
4.98	4.67428
4.99	4.66112
5	4.65948
5.01	4.65882
5.02	4.66211
5.03	4.64994
5.04	4.64994
5.05	4.64533
5.06	4.63941
5.07	4.63579
5.08	4.63086
5.09	4.63053
5.1	4.62329
5.11	4.62329
5.12	4.62066
5.13	4.61737
5.14	4.61539
5.15	4.60849
5.16	4.6075
5.17	4.60421
5.18	4.60158
5.19	4.59862
5.2	4.59566
5.21	4.5996
5.22	4.59697
5.23	4.5927
5.24	4.58908
5.25	4.58875
5.26	4.58283
5.27	4.57789
5.28	4.57033
5.29	4.5677
5.3	4.56901
5.31	4.55783
5.32	4.5598
5.33	4.56177
5.34	4.56079
5.35	4.55256
5.36	4.54631
5.37	4.54072
5.38	4.5427
5.39	4.53316
5.4	4.53414
5.41	4.53118
5.42	4.52197
5.43	4.52625
5.44	4.53085
5.45	4.52691
5.46	4.51704
5.47	4.50914
5.48	4.50454
5.49	4.50355
5.5	4.50223
5.51	4.50223
5.52	4.49861
5.53	4.49664
5.54	4.48875
5.55	4.49171
5.56	4.49401
5.57	4.4871
5.58	4.48282
5.59	4.48019
5.6	4.47559
5.61	4.46605
5.62	4.46276
5.63	4.46736
5.64	4.4621
5.65	4.46342
5.66	4.4621
5.67	4.45486
5.68	4.45355
5.69	4.44532
5.7	4.4496
5.71	4.45157
5.72	4.44763
5.73	4.44302
5.74	4.43217
5.75	4.4371
5.76	4.44039
5.77	4.43151
5.78	4.42526
5.79	4.42953
5.8	4.42197
5.81	4.41736
5.82	4.41605
5.83	4.40947
5.84	4.41177
5.85	4.40815
5.86	4.41309
5.87	4.40519
5.88	4.40355
5.89	4.39664
5.9	4.39105
5.91	4.40026
5.92	4.39434
5.93	4.3894
5.94	4.39039
5.95	4.38183
5.96	4.38414
5.97	4.37657
5.98	4.37756
5.99	4.37855
6	4.37098
6.01	4.3746
6.02	4.37131
6.03	4.36868
6.04	4.3644
6.05	4.36341
6.06	4.35354
6.07	4.35354
6.08	4.36308
6.09	4.34631
6.1	4.34631
6.11	4.34894
6.12	4.34039
6.13	4.34433
6.14	4.34335
6.15	4.33808
6.16	4.33874
6.17	4.33249
6.18	4.33381
6.19	4.3292
6.2	4.33118
6.21	4.32591
6.22	4.32262
6.23	4.32328
6.24	4.32361
6.25	4.31407
6.26	4.3144
6.27	4.31045
6.28	4.30749
6.29	4.30617
6.3	4.30552
6.31	4.30025
6.32	4.29992
6.33	4.29828
6.34	4.29499
6.35	4.29466
6.36	4.28973
6.37	4.29071
6.38	4.28742
6.39	4.28644
6.4	4.27328
6.41	4.27394
6.42	4.27361
6.43	4.27295
6.44	4.26802
6.45	4.27262
6.46	4.26604
6.47	4.26802
6.48	4.26275
6.49	4.2588
6.5	4.26045
6.51	4.25979
6.52	4.25157
6.53	4.24926
6.54	4.25782
6.55	4.25354
6.56	4.24894
6.57	4.24894
6.58	4.24367
6.59	4.24466
6.6	4.24466
6.61	4.23841
6.62	4.23216
6.63	4.23808
6.64	4.23183
6.65	4.23084
6.66	4.22426
6.67	4.2213
6.68	4.21966
6.69	4.21966
6.7	4.21834
6.71	4.21374
6.72	4.21604
6.73	4.20847
6.74	4.21143
6.75	4.21736
6.76	4.21505
6.77	4.20584
6.78	4.20749
6.79	4.20683
6.8	4.19893
6.81	4.19696
6.82	4.19466
6.83	4.19301
6.84	4.18676
6.85	4.19367
6.86	4.19005
6.87	4.18939
6.88	4.19005
6.89	4.18347
6.9	4.17558
6.91	4.18249
6.92	4.18347
6.93	4.17985
6.94	4.17426
6.95	4.17657
6.96	4.17558
6.97	4.17064
6.98	4.16801
6.99	4.16637
7	4.17262
7.01	4.16637
7.02	4.16735
7.03	4.15781
7.04	4.1611
7.05	4.15255
7.06	4.16867
7.07	4.15913
7.08	4.14893
7.09	4.14795
7.1	4.14137
7.11	4.13906
7.12	4.14696
7.13	4.14992
7.14	4.14499
7.15	4.144
7.16	4.14005
7.17	4.13248
7.18	4.13874
7.19	4.13117
7.2	4.12459
7.21	4.12985
7.22	4.13051
7.23	4.13117
7.24	4.12525
7.25	4.11933
7.26	4.11735
7.27	4.11669
7.28	4.12031
7.29	4.11768
7.3	4.11637
7.31	4.11735
7.32	4.11176
7.33	4.11702
7.34	4.11044
7.35	4.1009
7.36	4.11308
7.37	4.10485
7.38	4.10387
7.39	4.09992
7.4	4.09992
7.41	4.10123
7.42	4.09367
7.43	4.08808
7.44	4.09005
7.45	4.09334
7.46	4.08446
7.47	4.08413
7.48	4.08775
7.49	4.08775
7.5	4.08906
7.51	4.08281
7.52	4.07623
7.53	4.07261
7.54	4.08051
7.55	4.07886
7.56	4.07196
7.57	4.06834
7.58	4.0713
7.59	4.06834
7.6	4.06834
7.61	4.07196
7.62	4.06768
7.63	4.0634
7.64	4.069
7.65	4.06801
7.66	4.05419
7.67	4.05222
7.68	4.04827
7.69	4.05025
7.7	4.05057
7.71	4.04926
7.72	4.0509
7.73	4.05057
7.74	4.044
7.75	4.03939
7.76	4.04597
7.77	4.05057
7.78	4.04136
7.79	4.04268
7.8	4.03149
7.81	4.04103
7.82	4.04005
7.83	4.03939
7.84	4.0384
7.85	4.03972
7.86	4.03413
7.87	4.02821
7.88	4.03182
7.89	4.03215
7.9	4.02656
7.91	4.02656
7.92	4.02228
7.93	4.02853
7.94	4.02327
7.95	4.01932
7.96	4.02294
7.97	4.01603
7.98	4.01735
7.99	4.01505
8	4.01472
8.01	4.0088
8.02	4.00913
8.03	4.01505
8.04	4.01176
8.05	4.00847
8.06	4.00551
8.07	4.00649
8.08	3.99926
8.09	3.99893
8.1	4.00222
8.11	3.9986
8.12	3.99827
8.13	3.99959
8.14	3.99531
8.15	3.98939
8.16	3.99761
8.17	3.99399
8.18	3.99498
8.19	3.99136
8.2	3.99268
8.21	3.99005
8.22	3.98709
8.23	3.98577
8.24	3.98116
8.25	3.97919
8.26	3.98511
8.27	3.98018
8.28	3.97623
8.29	3.97853
8.3	3.98445
8.31	3.98873
8.32	3.98445
8.33	3.96998
8.34	3.97195
8.35	3.97689
8.36	3.97557
8.37	3.97557
8.38	3.9759
8.39	3.96998
8.4	3.96833
8.41	3.97162
8.42	3.96833
8.43	3.96702
8.44	3.96932
8.45	3.96472
8.46	3.9611
8.47	3.96702
8.48	3.96274
8.49	3.96439
8.5	3.96044
8.51	3.95748
8.52	3.96307
8.53	3.95847
8.54	3.95583
8.55	3.94991
8.56	3.94498
8.57	3.94827
8.58	3.95551
8.59	3.95847
8.6	3.95551
8.61	3.95287
8.62	3.94958
8.63	3.95254
8.64	3.94432
8.65	3.94827
8.66	3.94399
8.67	3.9407
8.68	3.9384
8.69	3.94301
8.7	3.94235
8.71	3.94268
8.72	3.93774
8.73	3.9361
8.74	3.93873
8.75	3.93445
8.76	3.93807
8.77	3.92985
8.78	3.93675
8.79	3.94564
8.8	3.93281
8.81	3.9305
8.82	3.92754
8.83	3.92195
8.84	3.92162
8.85	3.92524
8.86	3.92294
8.87	3.91702
8.88	3.92195
8.89	3.92195
8.9	3.92491
8.91	3.91965
8.92	3.91471
8.93	3.91044
8.94	3.91439
8.95	3.91899
8.96	3.91406
8.97	3.91143
8.98	3.90879
8.99	3.91603
9	3.9157
9.01	3.92327
9.02	3.91735
9.03	3.90978
9.04	3.91241
9.05	3.90287
9.06	3.90616
9.07	3.90221
9.08	3.90452
9.09	3.9134
9.1	3.90781
9.11	3.90156
9.12	3.90024
9.13	3.9032
9.14	3.89629
9.15	3.89892
9.16	3.89925
9.17	3.90024
9.18	3.89761
9.19	3.89925
9.2	3.89432
9.21	3.89827
9.22	3.89761
9.23	3.89564
9.24	3.89794
9.25	3.89202
9.26	3.89136
9.27	3.89333
9.28	3.89202
9.29	3.89596
9.3	3.89366
9.31	3.88774
9.32	3.88544
9.33	3.88478
9.34	3.88379
9.35	3.88116
9.36	3.88577
9.37	3.8907
9.38	3.88741
9.39	3.88017
9.4	3.88017
9.41	3.87721
9.42	3.88741
9.43	3.88215
9.44	3.88412
9.45	3.87129
9.46	3.87359
9.47	3.87327
9.48	3.86899
9.49	3.86866
9.5	3.87195
9.51	3.87129
9.52	3.86504
9.53	3.87031
9.54	3.87392
9.55	3.87195
9.56	3.87031
9.57	3.87359
9.58	3.87491
9.59	3.86274
9.6	3.86669
9.61	3.86077
9.62	3.86767
9.63	3.8657
9.64	3.86109
9.65	3.86438
9.66	3.85912
9.67	3.85682
9.68	3.85813
9.69	3.86175
9.7	3.86011
9.71	3.86077
9.72	3.85484
9.73	3.8532
9.74	3.85419
9.75	3.8509
9.76	3.85748
9.77	3.85748
9.78	3.85978
9.79	3.8532
9.8	3.85452
9.81	3.85221
9.82	3.85419
9.83	3.8555
9.84	3.85583
9.85	3.84925
9.86	3.85452
9.87	3.8509
9.88	3.84695
9.89	3.85155
9.9	3.84958
9.91	3.8509
9.92	3.8453
9.93	3.84827
9.94	3.85024
9.95	3.84827
9.96	3.84267
9.97	3.83971
9.98	3.83741
9.99	3.84037
10	3.84859
10.01	3.84169
10.02	3.84629
10.03	3.84169
10.04	3.84662
10.05	3.84827
10.06	3.84465
10.07	3.83609
10.08	3.83741
10.09	3.83971
10.1	3.8384
10.11	3.8384
10.12	3.83971
10.13	3.83708
10.14	3.83379
10.15	3.84004
10.16	3.83807
10.17	3.83346
10.18	3.83544
10.19	3.83083
10.2	3.83116
10.21	3.82886
10.22	3.84037
10.23	3.83445
10.24	3.82458
10.25	3.82524
10.26	3.83511
10.27	3.82557
10.28	3.8328
10.29	3.8305
10.3	3.82162
10.31	3.82326
10.32	3.82623
10.33	3.82326
10.34	3.82754
10.35	3.8203
10.36	3.82688
10.37	3.83379
10.38	3.82096
10.39	3.82688
10.4	3.82326
10.41	3.8203
10.42	3.81603
10.43	3.82228
10.44	3.82425
10.45	3.8203
10.46	3.81504
10.47	3.82623
10.48	3.82228
10.49	3.82063
10.5	3.81997
10.51	3.82326
10.52	3.8157
10.53	3.81734
10.54	3.818
10.55	3.81504
10.56	3.81504
10.57	3.81504
10.58	3.8134
10.59	3.81504
10.6	3.81011
10.61	3.81109
10.62	3.81307
10.63	3.81011
10.64	3.80649
10.65	3.81175
10.66	3.81241
10.67	3.8055
10.68	3.80945
10.69	3.81109
10.7	3.80846
10.71	3.81011
10.72	3.81109
10.73	3.80386
10.74	3.80879
10.75	3.80353
10.76	3.80221
10.77	3.80024
10.78	3.80221
10.79	3.80221
10.8	3.79892
10.81	3.79793
10.82	3.80057
10.83	3.79793
10.84	3.80024
10.85	3.80024
10.86	3.79695
10.87	3.79793
10.88	3.79728
10.89	3.79793
10.9	3.80287
10.91	3.79925
10.92	3.793
10.93	3.79399
10.94	3.79925
10.95	3.80188
10.96	3.79826
10.97	3.79662
10.98	3.79793
10.99	3.79991
11	3.793
11.01	3.79695
11.02	3.793
11.03	3.793
11.04	3.78938
11.05	3.79465
11.06	3.79366
11.07	3.7953
11.08	3.78741
11.09	3.78642
11.1	3.793
11.11	3.79728
11.12	3.78708
11.13	3.78741
11.14	3.78741
11.15	3.78905
11.16	3.78741
11.17	3.78543
11.18	3.78445
11.19	3.78774
11.2	3.79136
11.21	3.77984
11.22	3.78511
11.23	3.78576
11.24	3.79497
11.25	3.78741
11.26	3.78543
11.27	3.78609
11.28	3.78214
11.29	3.78379
11.3	3.7828
11.31	3.78017
11.32	3.78182
11.33	3.77589
11.34	3.78247
11.35	3.7805
11.36	3.77688
11.37	3.78511
11.38	3.77918
11.39	3.77688
11.4	3.77951
11.41	3.77754
11.42	3.77984
11.43	3.78149
11.44	3.7782
11.45	3.77721
11.46	3.77458
11.47	3.77458
11.48	3.77063
11.49	3.77293
11.5	3.77688
11.51	3.77129
11.52	3.76767
11.53	3.77326
11.54	3.77425
11.55	3.77228
11.56	3.7726
11.57	3.76997
11.58	3.77228
11.59	3.76668
11.6	3.77063
11.61	3.76866
11.62	3.7703
11.63	3.76603
11.64	3.76767
11.65	3.76734
11.66	3.77063
11.67	3.76339
11.68	3.76701
11.69	3.76405
11.7	3.76767
11.71	3.76471
11.72	3.76175
11.73	3.76635
11.74	3.76603
11.75	3.76142
11.76	3.76833
11.77	3.76734
11.78	3.76339
11.79	3.76504
11.8	3.76274
11.81	3.75649
11.82	3.76274
11.83	3.76899
11.84	3.76471
11.85	3.76504
11.86	3.76734
11.87	3.75714
11.88	3.75385
11.89	3.76504
11.9	3.76076
11.91	3.76274
11.92	3.76668
11.93	3.76504
11.94	3.76109
11.95	3.76438
11.96	3.75978
11.97	3.76076
11.98	3.76109
11.99	3.7657
12	3.76635
12.01	3.76241
12.02	3.76109
12.03	3.76142
12.04	3.76635
12.05	3.75879
12.06	3.76537
12.07	3.75846
12.08	3.75681
12.09	3.75978
12.1	3.75879
12.11	3.75517
12.12	3.75583
12.13	3.74958
12.14	3.74925
12.15	3.76076
12.16	3.75583
12.17	3.75451
12.18	3.75385
12.19	3.75122
12.2	3.76241
12.21	3.75879
12.22	3.75287
12.23	3.75813
12.24	3.75188
12.25	3.75385
12.26	3.7453
12.27	3.75056
12.28	3.74925
12.29	3.75418
12.3	3.75056
12.31	3.75616
12.32	3.75254
12.33	3.74629
12.34	3.74629
12.35	3.75024
12.36	3.75089
12.37	3.74958
12.38	3.74925
12.39	3.76043
12.4	3.7476
12.41	3.74662
12.42	3.75056
12.43	3.74793
12.44	3.74793
12.45	3.74892
12.46	3.74892
12.47	3.74037
12.48	3.74826
12.49	3.7476
12.5	3.74793
12.51	3.74563
12.52	3.74267
12.53	3.74333
12.54	3.73839
12.55	3.73741
12.56	3.74399
12.57	3.74563
12.58	3.74662
12.59	3.74102
12.6	3.74168
12.61	3.74168
12.62	3.74629
12.63	3.74958
12.64	3.74859
12.65	3.73872
12.66	3.74793
12.67	3.74234
12.68	3.73708
12.69	3.73576
12.7	3.74168
12.71	3.73675
12.72	3.74431
12.73	3.73971
12.74	3.73708
12.75	3.74135
12.76	3.74102
12.77	3.74102
12.78	3.74366
12.79	3.73806
12.8	3.73313
12.81	3.73247
12.82	3.73609
12.83	3.73774
12.84	3.74037
12.85	3.73905
12.86	3.73741
12.87	3.74102
12.88	3.74004
12.89	3.73708
12.9	3.73905
12.91	3.73642
12.92	3.74135
12.93	3.74267
12.94	3.73905
12.95	3.73543
12.96	3.73477
12.97	3.73708
12.98	3.73313
12.99	3.73149
13	3.72984
13.01	3.73576
13.02	3.73477
13.03	3.72951
13.04	3.73313
13.05	3.73412
13.06	3.73971
13.07	3.73642
13.08	3.72688
13.09	3.7282
13.1	3.73116
13.11	3.74497
13.12	3.73609
13.13	3.73445
13.14	3.73181
13.15	3.73116
13.16	3.73149
13.17	3.7328
13.18	3.73247
13.19	3.73576
13.2	3.73181
13.21	3.73214
13.22	3.73247
13.23	3.73379
13.24	3.72392
13.25	3.72721
13.26	3.73313
13.27	3.73774
13.28	3.72787
13.29	3.7305
13.3	3.72655
13.31	3.72589
13.32	3.72195
13.33	3.72885
13.34	3.72655
13.35	3.73149
13.36	3.72984
13.37	3.72787
13.38	3.72984
13.39	3.73543
13.4	3.73477
13.41	3.72984
13.42	3.7282
13.43	3.73116
13.44	3.72787
13.45	3.72556
13.46	3.72589
13.47	3.72458
13.48	3.73116
13.49	3.73313
13.5	3.72984
13.51	3.73346
13.52	3.72787
13.53	3.72326
13.54	3.71701
13.55	3.7226
13.56	3.72293
13.57	3.72162
13.58	3.71997
13.59	3.71931
13.6	3.7226
13.61	3.71668
13.62	3.71866
13.63	3.72326
13.64	3.71866
13.65	3.7226
13.66	3.72129
13.67	3.71405
13.68	3.71306
13.69	3.71175
13.7	3.7226
13.71	3.7226
13.72	3.71964
13.73	3.71668
13.74	3.71833
13.75	3.71405
13.76	3.71602
13.77	3.71931
13.78	3.71767
13.79	3.71635
13.8	3.71602
13.81	3.71537
13.82	3.71175
13.83	3.71208
13.84	3.71734
13.85	3.71043
13.86	3.71701
13.87	3.71635
13.88	3.71405
13.89	3.71471
13.9	3.71471
13.91	3.71241
13.92	3.71043
13.93	3.71273
13.94	3.71701
13.95	3.71273
13.96	3.71273
13.97	3.71701
13.98	3.71635
13.99	3.71504
14	3.71767
14.01	3.71471
14.02	3.71701
14.03	3.71438
14.04	3.70912
14.05	3.71701
14.06	3.71668
14.07	3.71438
14.08	3.71471
14.09	3.71866
14.1	3.71306
14.11	3.71438
14.12	3.71372
14.13	3.71964
14.14	3.71602
14.15	3.71043
14.16	3.71208
14.17	3.70879
14.18	3.70912
14.19	3.71142
14.2	3.70879
14.21	3.71273
14.22	3.70977
14.23	3.70944
14.24	3.71076
14.25	3.70977
14.26	3.7157
14.27	3.70747
14.28	3.70846
14.29	3.71339
14.3	3.7055
14.31	3.70451
14.32	3.71043
14.33	3.71273
14.34	3.7101
14.35	3.70681
14.36	3.70254
14.37	3.70977
14.38	3.70846
14.39	3.70846
14.4	3.70648
14.41	3.70879
14.42	3.70287
14.43	3.69859
14.44	3.71208
14.45	3.71076
14.46	3.70385
14.47	3.70648
14.48	3.71339
14.49	3.70616
14.5	3.70418
14.51	3.71109
14.52	3.71339
14.53	3.71241
14.54	3.71504
14.55	3.70912
14.56	3.70089
14.57	3.70188
14.58	3.70912
14.59	3.70977
14.6	3.7078
14.61	3.70616
14.62	3.7078
14.63	3.70648
14.64	3.70846
14.65	3.70648
14.66	3.70385
14.67	3.70221
14.68	3.70319
14.69	3.70484
14.7	3.71142
14.71	3.70912
14.72	3.70912
14.73	3.70287
14.74	3.70155
14.75	3.70023
14.76	3.69727
14.77	3.70714
14.78	3.69859
14.79	3.70352
14.8	3.70517
14.81	3.70747
14.82	3.69892
14.83	3.69925
14.84	3.70155
14.85	3.69431
14.86	3.69596
14.87	3.69793
14.88	3.70944
14.89	3.70879
14.9	3.70089
14.91	3.70023
14.92	3.70385
14.93	3.69826
14.94	3.70155
14.95	3.70385
14.96	3.7055
14.97	3.70319
14.98	3.70451
14.99	3.70319
15	3.70583
15.01	3.70681
15.02	3.69925
15.03	3.69596
15.04	3.69793
15.05	3.69563
15.06	3.69662
15.07	3.70188
15.08	3.68905
15.09	3.70155
15.1	3.70287
15.11	3.69991
15.12	3.69727
15.13	3.69135
15.14	3.69267
15.15	3.69892
15.16	3.69694
15.17	3.69662
15.18	3.69727
15.19	3.69333
15.2	3.69497
15.21	3.69135
15.22	3.69694
15.23	3.69365
15.24	3.69925
15.25	3.69694
15.26	3.6953
15.27	3.69563
15.28	3.69234
15.29	3.69826
15.3	3.69727
15.31	3.69925
15.32	3.70188
15.33	3.69859
15.34	3.69826
15.35	3.69991
15.36	3.69563
15.37	3.68675
15.38	3.69596
15.39	3.69431
15.4	3.69694
15.41	3.69991
15.42	3.70089
15.43	3.69826
15.44	3.68708
15.45	3.69431
15.46	3.6953
15.47	3.68872
15.48	3.69991
15.49	3.69859
15.5	3.69464
15.51	3.69925
15.52	3.69958
15.53	3.69892
15.54	3.69826
15.55	3.69365
15.56	3.69135
15.57	3.69727
15.58	3.69727
15.59	3.69069
15.6	3.68872
15.61	3.69267
15.62	3.69267
15.63	3.68872
15.64	3.693
15.65	3.69727
15.66	3.68905
15.67	3.68576
15.68	3.68708
15.69	3.69102
15.7	3.69135
15.71	3.69431
15.72	3.69234
15.73	3.69267
15.74	3.68773
15.75	3.69004
15.76	3.69267
15.77	3.69267
15.78	3.68938
15.79	3.69464
15.8	3.68675
15.81	3.69333
15.82	3.69431
15.83	3.68543
15.84	3.69168
15.85	3.68806
15.86	3.69168
15.87	3.69135
15.88	3.68872
15.89	3.68576
15.9	3.68872
15.91	3.69267
15.92	3.68642
15.93	3.68477
15.94	3.68247
15.95	3.6851
15.96	3.68708
15.97	3.6851
15.98	3.68346
15.99	3.68412
16	3.69069
16.01	3.68379
16.02	3.68412
16.03	3.69069
16.04	3.68806
16.05	3.68444
16.06	3.68609
16.07	3.68806
16.08	3.6953
16.09	3.69168
16.1	3.68773
16.11	3.68905
16.12	3.69037
16.13	3.69037
16.14	3.68346
16.15	3.6851
16.16	3.68806
16.17	3.68543
16.18	3.68379
16.19	3.68905
16.2	3.6874
16.21	3.68576
16.22	3.69398
16.23	3.68642
16.24	3.68477
16.25	3.6953
16.26	3.68839
16.27	3.68543
16.28	3.6851
16.29	3.68708
16.3	3.68971
16.31	3.68313
16.32	3.69135
16.33	3.69497
16.34	3.68773
16.35	3.69135
16.36	3.6874
16.37	3.69037
16.38	3.68905
16.39	3.69234
16.4	3.68214
16.41	3.68444
16.42	3.68773
16.43	3.68313
16.44	3.68905
16.45	3.68806
16.46	3.68444
16.47	3.68083
16.48	3.69168
16.49	3.6828
16.5	3.68214
16.51	3.6851
16.52	3.6828
16.53	3.6805
16.54	3.68412
16.55	3.68214
16.56	3.6828
16.57	3.68412
16.58	3.68477
16.59	3.6851
16.6	3.68477
16.61	3.67885
16.62	3.68675
16.63	3.68642
16.64	3.67918
16.65	3.68017
16.66	3.68083
16.67	3.68379
16.68	3.68346
16.69	3.68214
16.7	3.6828
16.71	3.68543
16.72	3.67754
16.73	3.68017
16.74	3.68379
16.75	3.68839
16.76	3.68642
16.77	3.68017
16.78	3.68214
16.79	3.6851
16.8	3.69004
16.81	3.68905
16.82	3.68609
16.83	3.6851
16.84	3.68839
16.85	3.6828
16.86	3.68346
16.87	3.68642
16.88	3.68609
16.89	3.6851
16.9	3.68346
16.91	3.68247
16.92	3.68444
16.93	3.68379
16.94	3.69004
16.95	3.68675
16.96	3.6874
16.97	3.68115
16.98	3.67918
16.99	3.68444
17	3.68214
17.01	3.6805
17.02	3.68181
17.03	3.67425
17.04	3.67951
17.05	3.67688
17.06	3.68148
17.07	3.68346
17.08	3.68642
17.09	3.67622
17.1	3.67819
17.11	3.68346
17.12	3.68543
17.13	3.68247
17.14	3.68115
17.15	3.67655
17.16	3.68148
17.17	3.67918
17.18	3.67655
17.19	3.68247
17.2	3.68017
17.21	3.67359
17.22	3.67622
17.23	3.67951
17.24	3.67523
17.25	3.67589
17.26	3.67688
17.27	3.66865
17.28	3.6749
17.29	3.67227
17.3	3.67326
17.31	3.67655
17.32	3.67359
17.33	3.6749
17.34	3.67227
17.35	3.66734
17.36	3.67359
17.37	3.66997
17.38	3.66668
17.39	3.66997
17.4	3.67655
17.41	3.67819
17.42	3.67326
17.43	3.67392
17.44	3.66898
17.45	3.67096
17.46	3.6726
17.47	3.6749
17.48	3.6805
17.49	3.67326
17.5	3.67096
17.51	3.67655
17.52	3.6726
17.53	3.67161
17.54	3.67425
17.55	3.67161
17.56	3.67293
17.57	3.6726
17.58	3.67392
17.59	3.67392
17.6	3.67523
17.61	3.66964
17.62	3.66734
17.63	3.66602
17.64	3.66931
17.65	3.66833
17.66	3.66931
17.67	3.67129
17.68	3.67754
17.69	3.67194
17.7	3.67392
17.71	3.67129
17.72	3.67556
17.73	3.68444
17.74	3.67754
17.75	3.66767
17.76	3.67721
17.77	3.66898
17.78	3.67523
17.79	3.67063
17.8	3.66701
17.81	3.67425
17.82	3.66635
17.83	3.67293
17.84	3.67885
17.85	3.67852
17.86	3.67754
17.87	3.67227
17.88	3.6726
17.89	3.67786
17.9	3.67688
17.91	3.6726
17.92	3.6749
17.93	3.67556
17.94	3.68017
17.95	3.67754
17.96	3.68214
17.97	3.68017
17.98	3.68477
17.99	3.68115
18	3.67754
18.01	3.67786
18.02	3.67721
18.03	3.67918
18.04	3.67688
18.05	3.6749
18.06	3.6703
18.07	3.67425
18.08	3.67063
18.09	3.67293
18.1	3.67458
18.11	3.67129
18.12	3.67392
18.13	3.67688
18.14	3.6749
18.15	3.6726
18.16	3.67392
18.17	3.67359
18.18	3.66767
18.19	3.67754
18.2	3.67458
18.21	3.67194
18.22	3.67885
18.23	3.67293
18.24	3.66931
18.25	3.67359
18.26	3.67622
18.27	3.67161
18.28	3.66997
18.29	3.66635
18.3	3.66898
18.31	3.66668
18.32	3.66471
18.33	3.67589
18.34	3.6703
18.35	3.66767
18.36	3.67326
18.37	3.66602
18.38	3.66767
18.39	3.66833
18.4	3.66734
18.41	3.66536
18.42	3.66635
18.43	3.66898
18.44	3.66339
18.45	3.66635
18.46	3.66536
18.47	3.66471
18.48	3.66602
18.49	3.65977
18.5	3.65846
18.51	3.66142
18.52	3.66471
18.53	3.66306
18.54	3.66569
18.55	3.65977
18.56	3.66306
18.57	3.66734
18.58	3.66767
18.59	3.66207
18.6	3.66997
18.61	3.66964
18.62	3.66273
18.63	3.66569
18.64	3.65911
18.65	3.65879
18.66	3.6624
18.67	3.65944
18.68	3.66602
18.69	3.66833
18.7	3.66471
18.71	3.66635
18.72	3.66635
18.73	3.66536
18.74	3.67096
18.75	3.66438
18.76	3.66273
18.77	3.66405
18.78	3.66076
18.79	3.66504
18.8	3.668
18.81	3.66076
18.82	3.66865
18.83	3.66833
18.84	3.6601
18.85	3.66602
18.86	3.66536
18.87	3.66109
18.88	3.65813
18.89	3.65911
18.9	3.66142
18.91	3.65879
18.92	3.66273
18.93	3.65911
18.94	3.66043
18.95	3.65977
18.96	3.65418
18.97	3.65813
18.98	3.66076
18.99	3.66207
19	3.66043
19.01	3.66142
19.02	3.65944
19.03	3.66175
19.04	3.66504
19.05	3.65615
19.06	3.65846
19.07	3.6555
19.08	3.65648
19.09	3.65517
19.1	3.65813
19.11	3.65879
19.12	3.65977
19.13	3.66175
19.14	3.65352
19.15	3.65056
19.16	3.6601
19.17	3.66635
19.18	3.65582
19.19	3.66142
19.2	3.66109
19.21	3.66273
19.22	3.66076
19.23	3.66471
19.24	3.66175
19.25	3.6624
19.26	3.6578
19.27	3.65977
19.28	3.66372
19.29	3.6555
19.3	3.65813
19.31	3.65747
19.32	3.65977
19.33	3.66109
19.34	3.66273
19.35	3.65484
19.36	3.66142
19.37	3.66306
19.38	3.65681
19.39	3.66175
19.4	3.66273
19.41	3.65977
19.42	3.66043
19.43	3.6624
19.44	3.65911
19.45	3.66109
19.46	3.6601
19.47	3.66306
19.48	3.66175
19.49	3.66076
19.5	3.6578
19.51	3.66109
19.52	3.66372
19.53	3.66207
19.54	3.65484
19.55	3.66668
19.56	3.65977
19.57	3.66043
19.58	3.66043
19.59	3.65911
19.6	3.66339
19.61	3.66043
19.62	3.6624
19.63	3.65977
19.64	3.65747
19.65	3.65648
19.66	3.65615
19.67	3.65714
19.68	3.65879
19.69	3.65648
19.7	3.65879
19.71	3.66273
19.72	3.65714
19.73	3.65254
19.74	3.65846
19.75	3.65747
19.76	3.65944
19.77	3.65484
19.78	3.65221
19.79	3.65517
19.8	3.65089
19.81	3.65681
19.82	3.65385
19.83	3.6578
19.84	3.65122
19.85	3.65977
19.86	3.6578
19.87	3.65254
19.88	3.65254
19.89	3.6601
19.9	3.65648
19.91	3.64925
19.92	3.65286
19.93	3.65911
19.94	3.65352
19.95	3.64957
19.96	3.6555
19.97	3.65517
19.98	3.66109
19.99	3.65911
20	3.66076
20.01	3.66339
20.02	3.65582
20.03	3.65517
20.04	3.65451
20.05	3.65582
20.06	3.65451
20.07	3.65352
20.08	3.65911
20.09	3.65615
20.1	3.66076
20.11	3.6578
20.12	3.65813
20.13	3.65385
20.14	3.65714
20.15	3.65451
20.16	3.65221
20.17	3.65221
20.18	3.65122
20.19	3.65911
20.2	3.65813
20.21	3.65714
20.22	3.65911
20.23	3.65286
20.24	3.65681
20.25	3.65122
20.26	3.65352
20.27	3.65385
20.28	3.6499
20.29	3.65155
20.3	3.65418
20.31	3.65221
20.32	3.64628
20.33	3.64826
20.34	3.6499
20.35	3.64826
20.36	3.65188
20.37	3.65418
20.38	3.65385
20.39	3.65188
20.4	3.64892
20.41	3.64793
20.42	3.65352
20.43	3.65517
20.44	3.64925
20.45	3.65517
20.46	3.65056
20.47	3.65615
20.48	3.64859
20.49	3.64826
20.5	3.65352
20.51	3.65813
20.52	3.65254
20.53	3.6476
20.54	3.65418
20.55	3.65484
20.56	3.64957
20.57	3.64859
20.58	3.65221
20.59	3.64727
20.6	3.65319
20.61	3.6476
20.62	3.6476
20.63	3.64596
20.64	3.65582
20.65	3.65319
20.66	3.65484
20.67	3.64859
20.68	3.65023
20.69	3.65254
20.7	3.64563
20.71	3.64859
20.72	3.65484
20.73	3.64727
20.74	3.64957
20.75	3.65451
20.76	3.65155
20.77	3.6578
20.78	3.64859
20.79	3.6499
20.8	3.65648
20.81	3.65385
20.82	3.65385
20.83	3.64892
20.84	3.64925
20.85	3.64892
20.86	3.63905
20.87	3.64826
20.88	3.65747
20.89	3.65188
20.9	3.65188
20.91	3.65747
20.92	3.65418
20.93	3.65286
20.94	3.65221
20.95	3.64661
20.96	3.64925
20.97	3.64596
20.98	3.64925
20.99	3.65582
21	3.65484
21.01	3.6453
21.02	3.64793
21.03	3.6499
21.04	3.65582
21.05	3.65582
21.06	3.65319
21.07	3.64694
21.08	3.64793
21.09	3.63905
21.1	3.64957
21.11	3.64563
21.12	3.6476
21.13	3.64694
21.14	3.64661
21.15	3.65188
21.16	3.64661
21.17	3.65385
21.18	3.65155
21.19	3.65188
21.2	3.64628
21.21	3.64793
21.22	3.64793
21.23	3.6499
21.24	3.64563
21.25	3.65056
21.26	3.65056
21.27	3.64892
21.28	3.65286
21.29	3.65254
21.3	3.64793
21.31	3.64332
21.32	3.64563
21.33	3.64628
21.34	3.64464
21.35	3.64727
21.36	3.63576
21.37	3.64398
21.38	3.64859
21.39	3.64892
21.4	3.6453
21.41	3.65089
21.42	3.64859
21.43	3.64102
21.44	3.64431
21.45	3.65056
21.46	3.65319
21.47	3.65221
21.48	3.65418
21.49	3.6476
21.5	3.64793
21.51	3.6476
21.52	3.6453
21.53	3.64365
21.54	3.64464
21.55	3.64661
21.56	3.64464
21.57	3.65023
21.58	3.65451
21.59	3.64628
21.6	3.65023
21.61	3.65056
21.62	3.6499
21.63	3.65286
21.64	3.64826
21.65	3.643
21.66	3.6476
21.67	3.64957
21.68	3.64464
21.69	3.63905
21.7	3.6453
21.71	3.64957
21.72	3.63971
21.73	3.65056
21.74	3.64168
21.75	3.64267
21.76	3.65714
21.77	3.64727
21.78	3.64661
21.79	3.64563
21.8	3.63707
21.81	3.63773
21.82	3.64497
21.83	3.64563
21.84	3.64102
21.85	3.64365
21.86	3.63806
21.87	3.64036
21.88	3.64201
21.89	3.63938
21.9	3.64431
21.91	3.64267
21.92	3.64628
21.93	3.64234
21.94	3.63905
21.95	3.64267
21.96	3.64727
21.97	3.64628
21.98	3.64135
21.99	3.64102
22	3.64497
22.01	3.6453
22.02	3.65056
22.03	3.643
22.04	3.64727
22.05	3.64596
22.06	3.64234
22.07	3.64398
22.08	3.6476
22.09	3.64793
22.1	3.64102
22.11	3.64464
22.12	3.64201
22.13	3.64102
22.14	3.64069
22.15	3.64201
22.16	3.643
22.17	3.64694
22.18	3.643
22.19	3.64332
22.2	3.64168
22.21	3.63411
22.22	3.64398
22.23	3.65089
22.24	3.64859
22.25	3.64234
22.26	3.64036
22.27	3.64168
22.28	3.6453
22.29	3.64497
22.3	3.63411
22.31	3.6476
22.32	3.63938
22.33	3.64003
22.34	3.63411
22.35	3.63543
22.36	3.64398
22.37	3.63905
22.38	3.64201
22.39	3.64201
22.4	3.64332
22.41	3.64892
22.42	3.64464
22.43	3.64793
22.44	3.64234
22.45	3.64431
22.46	3.643
22.47	3.64398
22.48	3.64135
22.49	3.643
22.5	3.64563
22.51	3.64859
22.52	3.63905
22.53	3.64826
22.54	3.65418
22.55	3.64859
22.56	3.64661
22.57	3.64628
22.58	3.63707
22.59	3.64826
22.6	3.643
22.61	3.643
22.62	3.64069
22.63	3.64563
22.64	3.64793
22.65	3.64464
22.66	3.64332
22.67	3.64497
22.68	3.64365
22.69	3.64168
22.7	3.63642
22.71	3.6328
22.72	3.63839
22.73	3.63971
22.74	3.64365
22.75	3.64234
22.76	3.64201
22.77	3.63806
22.78	3.63017
22.79	3.64234
22.8	3.63938
22.81	3.64398
22.82	3.63905
22.83	3.63477
22.84	3.63675
22.85	3.63411
22.86	3.63675
22.87	3.63642
22.88	3.63839
22.89	3.64431
22.9	3.64135
22.91	3.63905
22.92	3.643
22.93	3.64036
22.94	3.64069
22.95	3.63971
22.96	3.64201
22.97	3.6453
22.98	3.64431
22.99	3.64168
23	3.64102
23.01	3.6374
23.02	3.63609
23.03	3.63707
23.04	3.63346
23.05	3.64069
23.06	3.6453
23.07	3.63477
23.08	3.63411
23.09	3.63707
23.1	3.63444
23.11	3.63477
23.12	3.63773
23.13	3.64069
23.14	3.64267
23.15	3.63313
23.16	3.63675
23.17	3.63872
23.18	3.63477
23.19	3.63971
23.2	3.63905
23.21	3.63707
23.22	3.63214
23.23	3.64003
23.24	3.64234
23.25	3.64398
23.26	3.63642
23.27	3.64036
23.28	3.64398
23.29	3.64661
23.3	3.64234
23.31	3.64069
23.32	3.6374
23.33	3.64036
23.34	3.63675
23.35	3.63378
23.36	3.64168
23.37	3.64267
23.38	3.64332
23.39	3.63938
23.4	3.64036
23.41	3.64201
23.42	3.64168
23.43	3.63017
23.44	3.63872
23.45	3.63839
23.46	3.63707
23.47	3.6351
23.48	3.63642
23.49	3.63609
23.5	3.63313
23.51	3.63576
23.52	3.63313
23.53	3.64234
23.54	3.63773
23.55	3.63378
23.56	3.64069
23.57	3.64332
23.58	3.64201
23.59	3.63477
23.6	3.63609
23.61	3.63642
23.62	3.63806
23.63	3.64365
23.64	3.643
23.65	3.62885
23.66	3.63938
23.67	3.64003
23.68	3.64267
23.69	3.63444
23.7	3.6351
23.71	3.63543
23.72	3.62753
23.73	3.63346
23.74	3.63247
23.75	3.63444
23.76	3.63346
23.77	3.62918
23.78	3.63576
23.79	3.63313
23.8	3.63214
23.81	3.63346
23.82	3.63773
23.83	3.63313
23.84	3.63313
23.85	3.62951
23.86	3.63378
23.87	3.63181
23.88	3.63839
23.89	3.64069
23.9	3.6351
23.91	3.62885
23.92	3.63181
23.93	3.63082
23.94	3.63148
23.95	3.63313
23.96	3.63543
23.97	3.6328
23.98	3.62885
23.99	3.63017
24	3.63313
24.01	3.63675
24.02	3.63017
24.03	3.63148
24.04	3.62951
24.05	3.62951
24.06	3.63444
24.07	3.63576
24.08	3.63675
24.09	3.63675
24.1	3.63675
24.11	3.63543
24.12	3.63313
24.13	3.63872
24.14	3.63214
24.15	3.63082
24.16	3.62721
24.17	3.63181
24.18	3.63247
24.19	3.63115
24.2	3.63148
24.21	3.63082
24.22	3.63839
24.23	3.63872
24.24	3.63806
24.25	3.63214
24.26	3.6351
24.27	3.63444
24.28	3.6328
24.29	3.63444
24.3	3.63017
24.31	3.63214
24.32	3.63313
24.33	3.63214
24.34	3.6328
24.35	3.63839
24.36	3.6351
24.37	3.63214
24.38	3.63411
24.39	3.63082
24.4	3.63017
24.41	3.63082
24.42	3.63082
24.43	3.63082
24.44	3.6328
24.45	3.63378
24.46	3.62753
24.47	3.62951
24.48	3.63346
24.49	3.63115
24.5	3.63444
24.51	3.63313
24.52	3.62721
24.53	3.63181
24.54	3.63115
24.55	3.63378
24.56	3.63181
24.57	3.62852
24.58	3.6226
24.59	3.63576
24.6	3.63148
24.61	3.6305
24.62	3.63082
24.63	3.6249
24.64	3.62951
24.65	3.62457
24.66	3.6305
24.67	3.62161
24.68	3.63148
24.69	3.62786
24.7	3.62786
24.71	3.62951
24.72	3.62688
24.73	3.63017
24.74	3.62786
24.75	3.62753
24.76	3.63115
24.77	3.62622
24.78	3.62688
24.79	3.62984
24.8	3.63017
24.81	3.62819
24.82	3.63346
24.83	3.63017
24.84	3.62293
24.85	3.6249
24.86	3.62721
24.87	3.63543
24.88	3.62918
24.89	3.62655
24.9	3.62951
24.91	3.62786
24.92	3.62128
24.93	3.62753
24.94	3.62622
24.95	3.63543
24.96	3.62819
24.97	3.62984
24.98	3.63214
24.99	3.63082
25	3.63576
25.01	3.63148
25.02	3.63642
25.03	3.63148
25.04	3.63017
25.05	3.63872
25.06	3.62951
25.07	3.62753
25.08	3.6351
25.09	3.6328
25.1	3.62556
25.11	3.62424
25.12	3.62819
25.13	3.63543
25.14	3.6305
25.15	3.63313
25.16	3.6305
25.17	3.62753
25.18	3.62753
25.19	3.62819
25.2	3.6305
25.21	3.62655
25.22	3.63214
25.23	3.62819
25.24	3.62819
25.25	3.62786
25.26	3.62721
25.27	3.63181
25.28	3.62819
25.29	3.61668
25.3	3.62556
25.31	3.63346
25.32	3.62918
25.33	3.63247
25.34	3.6249
25.35	3.62688
25.36	3.62424
25.37	3.6226
25.38	3.62786
25.39	3.62096
25.4	3.62852
25.41	3.62326
25.42	3.62951
25.43	3.62655
25.44	3.63313
25.45	3.62655
25.46	3.62622
25.47	3.62622
25.48	3.62655
25.49	3.62819
25.5	3.62227
25.51	3.62194
25.52	3.62786
25.53	3.6226
25.54	3.62819
25.55	3.62918
25.56	3.62556
25.57	3.62359
25.58	3.62523
25.59	3.62326
25.6	3.62457
25.61	3.63017
25.62	3.62096
25.63	3.62655
25.64	3.62984
25.65	3.63444
25.66	3.63115
25.67	3.6249
25.68	3.62786
25.69	3.62852
25.7	3.62918
25.71	3.62589
25.72	3.62457
25.73	3.63082
25.74	3.63444
25.75	3.63082
25.76	3.62852
25.77	3.62721
25.78	3.62655
25.79	3.62885
25.8	3.63115
25.81	3.62951
25.82	3.63313
25.83	3.62951
25.84	3.63181
25.85	3.62819
25.86	3.62885
25.87	3.62819
25.88	3.62589
25.89	3.62721
25.9	3.63115
25.91	3.63148
25.92	3.63675
25.93	3.6351
25.94	3.63313
25.95	3.62951
25.96	3.62951
25.97	3.63905
25.98	3.63477
25.99	3.62885
26	3.63017
26.01	3.63148
26.02	3.63346
26.03	3.62753
26.04	3.63444
26.05	3.63444
26.06	3.63017
26.07	3.62918
26.08	3.62753
26.09	3.62753
26.1	3.62885
26.11	3.62786
26.12	3.62819
26.13	3.6249
26.14	3.62852
26.15	3.62753
26.16	3.62326
26.17	3.63017
26.18	3.62622
26.19	3.6305
26.2	3.62984
26.21	3.6249
26.22	3.61898
26.23	3.6249
26.24	3.61668
26.25	3.62293
26.26	3.62326
26.27	3.62096
26.28	3.62359
26.29	3.61865
26.3	3.62293
26.31	3.63082
26.32	3.61997
26.33	3.61438
26.34	3.62227
26.35	3.61898
26.36	3.6203
26.37	3.62128
26.38	3.6249
26.39	3.63017
26.4	3.62655
26.41	3.61964
26.42	3.61964
26.43	3.62194
26.44	3.61898
26.45	3.61503
26.46	3.61536
26.47	3.61898
26.48	3.62227
26.49	3.61964
26.5	3.6203
26.51	3.62359
26.52	3.62194
26.53	3.6203
26.54	3.62786
26.55	3.61865
26.56	3.61635
26.57	3.62523
26.58	3.62721
26.59	3.62655
26.6	3.62063
26.61	3.62161
26.62	3.61997
26.63	3.61668
26.64	3.62128
26.65	3.6203
26.66	3.61865
26.67	3.61372
26.68	3.62194
26.69	3.62161
26.7	3.6226
26.71	3.61799
26.72	3.61931
26.73	3.61898
26.74	3.61964
26.75	3.61898
26.76	3.62227
26.77	3.62523
26.78	3.62194
26.79	3.6249
26.8	3.62227
26.81	3.62424
26.82	3.62063
26.83	3.61964
26.84	3.62161
26.85	3.61372
26.86	3.61668
26.87	3.62096
26.88	3.62128
26.89	3.62096
26.9	3.62918
26.91	3.6249
26.92	3.62951
26.93	3.62161
26.94	3.62326
26.95	3.62392
26.96	3.62096
26.97	3.62096
26.98	3.61668
26.99	3.62063
27	3.62293
27.01	3.62128
27.02	3.6226
27.03	3.61767
27.04	3.61701
27.05	3.61635
27.06	3.61536
27.07	3.6226
27.08	3.62556
27.09	3.61635
27.1	3.61174
27.11	3.61635
27.12	3.61832
27.13	3.62293
27.14	3.61898
27.15	3.61832
27.16	3.61997
27.17	3.61701
27.18	3.62326
27.19	3.61997
27.2	3.62359
27.21	3.62359
27.22	3.61799
27.23	3.61898
27.24	3.61964
27.25	3.62523
27.26	3.61898
27.27	3.61536
27.28	3.62622
27.29	3.6203
27.3	3.61602
27.31	3.61734
27.32	3.62523
27.33	3.62424
27.34	3.62293
27.35	3.62457
27.36	3.62424
27.37	3.6203
27.38	3.61471
27.39	3.62392
27.4	3.61964
27.41	3.61799
27.42	3.62721
27.43	3.62293
27.44	3.6203
27.45	3.62457
27.46	3.62161
27.47	3.61931
27.48	3.61734
27.49	3.61964
27.5	3.61898
27.51	3.61832
27.52	3.62194
27.53	3.6226
27.54	3.61964
27.55	3.61799
27.56	3.61471
27.57	3.62227
27.58	3.62227
27.59	3.62392
27.6	3.62096
27.61	3.61536
27.62	3.62293
27.63	3.61734
27.64	3.61865
27.65	3.62161
27.66	3.61931
27.67	3.6203
27.68	3.61767
27.69	3.61273
27.7	3.61635
27.71	3.61799
27.72	3.61799
27.73	3.61438
27.74	3.61536
27.75	3.61471
27.76	3.61602
27.77	3.61668
27.78	3.61339
27.79	3.61898
27.8	3.61306
27.81	3.61306
27.82	3.61799
27.83	3.61931
27.84	3.61701
27.85	3.62194
27.86	3.61799
27.87	3.61602
27.88	3.61767
27.89	3.61865
27.9	3.61997
27.91	3.62359
27.92	3.62523
27.93	3.61931
27.94	3.62523
27.95	3.62556
27.96	3.62227
27.97	3.62589
27.98	3.62424
27.99	3.61997
28	3.62359
28.01	3.62326
28.02	3.62622
28.03	3.62392
28.04	3.61832
28.05	3.61832
28.06	3.62326
28.07	3.61898
28.08	3.6226
28.09	3.61503
28.1	3.6226
28.11	3.6226
28.12	3.61668
28.13	3.61536
28.14	3.60911
28.15	3.61438
28.16	3.61701
28.17	3.61503
28.18	3.61569
28.19	3.62128
28.2	3.60944
28.21	3.62227
28.22	3.62096
28.23	3.61865
28.24	3.61503
28.25	3.61832
28.26	3.6124
28.27	3.61799
28.28	3.61503
28.29	3.61701
28.3	3.61602
28.31	3.61734
28.32	3.61635
28.33	3.61405
28.34	3.61405
28.35	3.62293
28.36	3.61536
28.37	3.61076
28.38	3.61438
28.39	3.61799
28.4	3.62227
28.41	3.61306
28.42	3.61405
28.43	3.61865
28.44	3.61832
28.45	3.61372
28.46	3.61734
28.47	3.61372
28.48	3.61471
28.49	3.61767
28.5	3.61931
28.51	3.61503
28.52	3.61701
28.53	3.62359
28.54	3.61405
28.55	3.61372
28.56	3.61405
28.57	3.61635
28.58	3.61701
28.59	3.61471
28.6	3.61372
28.61	3.61767
28.62	3.62227
28.63	3.61997
28.64	3.60944
28.65	3.61372
28.66	3.6249
28.67	3.61931
28.68	3.6124
28.69	3.60977
28.7	3.61931
28.71	3.61734
28.72	3.61372
28.73	3.61635
28.74	3.61569
28.75	3.61471
28.76	3.61471
28.77	3.61043
28.78	3.61701
28.79	3.6226
28.8	3.6101
28.81	3.61767
28.82	3.61339
28.83	3.6124
28.84	3.61635
28.85	3.61503
28.86	3.61503
28.87	3.61734
28.88	3.61207
28.89	3.61076
28.9	3.61174
28.91	3.6124
28.92	3.61405
28.93	3.61701
28.94	3.61931
28.95	3.62457
28.96	3.6203
28.97	3.61865
28.98	3.61734
28.99	3.61273
29	3.61405
29.01	3.61799
29.02	3.61635
29.03	3.61471
29.04	3.60944
29.05	3.61076
29.06	3.61405
29.07	3.61865
29.08	3.61767
29.09	3.6124
29.1	3.61668
29.11	3.61536
29.12	3.61076
29.13	3.61471
29.14	3.61701
29.15	3.61273
29.16	3.61438
29.17	3.61799
29.18	3.61043
29.19	3.60845
29.2	3.61372
29.21	3.61076
29.22	3.61273
29.23	3.60813
29.24	3.61339
29.25	3.61635
29.26	3.61734
29.27	3.61109
29.28	3.6078
29.29	3.61339
29.3	3.61602
29.31	3.61569
29.32	3.61109
29.33	3.61734
29.34	3.61503
29.35	3.60944
29.36	3.6101
29.37	3.61339
29.38	3.61174
29.39	3.60944
29.4	3.61306
29.41	3.60714
29.42	3.60944
29.43	3.6078
29.44	3.62096
29.45	3.61109
29.46	3.61306
29.47	3.61372
29.48	3.61536
29.49	3.61076
29.5	3.61142
29.51	3.61372
29.52	3.61372
29.53	3.61471
29.54	3.61536
29.55	3.61043
29.56	3.60911
29.57	3.60549
29.58	3.60977
29.59	3.6101
29.6	3.61701
29.61	3.61635
29.62	3.61635
29.63	3.61306
29.64	3.61142
29.65	3.60747
29.66	3.61109
29.67	3.60813
29.68	3.60977
29.69	3.61174
29.7	3.61635
29.71	3.61569
29.72	3.60878
29.73	3.60648
29.74	3.60615
29.75	3.61767
29.76	3.60944
29.77	3.61109
29.78	3.61207
29.79	3.61142
29.8	3.61043
29.81	3.61207
29.82	3.61142
29.83	3.61076
29.84	3.60813
29.85	3.61339
29.86	3.61372
29.87	3.60944
29.88	3.60878
29.89	3.61372
29.9	3.61273
29.91	3.61471
29.92	3.60813
29.93	3.61076
29.94	3.61339
29.95	3.6124
29.96	3.61076
29.97	3.60977
29.98	3.61372
29.99	3.61339
30	3.61174
