"BIO-KINE ASCII FILE"
"_COMMENT"	"MOS-500 Spectrometer"
"_COMMENT"	"Kinetics measurement"
"_COMMENT"	"Y Unit : Volt,  X Unit : s"
"_COMMENT"	"Excitation wavelength : 380 nm"
"_COMMENT"	"Fentes bandwidth =  1 nm"
"_COMMENT"	"HV= 850V"
"_COMMENT"	"Timebase  1 =  .01 s   3001 pts"
"_SFM"	"SFM-400 /S  Advanced mode"
"_SFM"	"Ratio : S1: 2.5, S2: 0, S3: 0, S4: 1"
"_SFM"	"Content : S1: , S2: , S3: , S4:"
"_SFM"	"Concentration : S1: , S2: , S3: , S4:"
"_SFM"	"Total volume : 209 µl  Flow : 3.5 mL/s"
"_SFM"	"Acquisition start :  10 ms before stop"
"_SFM"	"cuve=FC-15, s1=10 ml , s2=10 ml , s3=10 ml , s4=1.9 ml"
"_UNITX"	"s"
"_UNITY"	"Volt"
"_DELTAX"	0
"_DATA"
1e-300	0.626448
0.01	0.60671
0.02	0.604736
0.03	0.601118
0.04	0.600131
0.05	0.602434
0.06	0.611644
0.07	0.610658
0.08	0.605723
0.09	0.604407
0.1	0.607039
0.11	0.610658
0.12	0.604407
0.13	0.603421
0.14	0.601118
0.15	0.604078
0.16	0.617895
0.17	0.612302
0.18	0.608026
0.19	0.607039
0.2	0.608684
0.21	0.607368
0.22	0.614276
0.23	0.613289
0.24	0.613289
0.25	0.610987
0.26	0.60671
0.27	0.601118
0.28	0.606381
0.29	0.605723
0.3	0.613947
0.31	0.610658
0.32	0.600789
0.33	0.615263
0.34	0.61
0.35	0.607368
0.36	0.612302
0.37	0.608355
0.38	0.605723
0.39	0.608684
0.4	0.609013
0.41	0.611644
0.42	0.59717
0.43	0.601447
0.44	0.614934
0.45	0.618882
0.46	0.623487
0.47	0.61296
0.48	0.61
0.49	0.607039
0.5	0.610658
0.51	0.611973
0.52	0.612631
0.53	0.605723
0.54	0.60671
0.55	0.608355
0.56	0.615592
0.57	0.610987
0.58	0.616908
0.59	0.617895
0.6	0.610329
0.61	0.609671
0.62	0.608026
0.63	0.604407
0.64	0.608355
0.65	0.604407
0.66	0.614605
0.67	0.61
0.68	0.611644
0.69	0.607039
0.7	0.603092
0.71	0.613289
0.72	0.615921
0.73	0.619539
0.74	0.612631
0.75	0.604407
0.76	0.60671
0.77	0.617566
0.78	0.612302
0.79	0.609342
0.8	0.612302
0.81	0.609342
0.82	0.613947
0.83	0.610987
0.84	0.604736
0.85	0.612302
0.86	0.607697
0.87	0.609013
0.88	0.613618
0.89	0.608684
0.9	0.609013
0.91	0.609342
0.92	0.603421
0.93	0.610329
0.94	0.615263
0.95	0.615921
0.96	0.617566
0.97	0.604736
0.98	0.621184
0.99	0.621513
1	0.605723
1.01	0.608355
1.02	0.606052
1.03	0.601447
1.04	0.61296
1.05	0.614934
1.06	0.606052
1.07	0.604736
1.08	0.610329
1.09	0.609342
1.1	0.61296
1.11	0.600131
1.12	0.608684
1.13	0.606381
1.14	0.613947
1.15	0.611644
1.16	0.611973
1.17	0.607039
1.18	0.614276
1.19	0.607697
1.2	0.609342
1.21	0.605394
1.22	0.609671
1.23	0.614934
1.24	0.604407
1.25	0.600789
1.26	0.610658
1.27	0.607368
1.28	0.609671
1.29	0.607039
1.3	0.609013
1.31	0.604078
1.32	0.616908
1.33	0.607697
1.34	0.602105
1.35	0.612302
1.36	0.598815
1.37	0.600131
1.38	0.603421
1.39	0.609671
1.4	0.61625
1.41	0.606052
1.42	0.606052
1.43	0.61296
1.44	0.60671
1.45	0.610329
1.46	0.619211
1.47	0.605065
1.48	0.611316
1.49	0.611644
1.5	0.614934
1.51	0.610329
1.52	0.611316
1.53	0.610987
1.54	0.615921
1.55	0.609671
1.56	0.616908
1.57	0.617566
1.58	0.614605
1.59	0.611644
1.6	0.608684
1.61	0.611644
1.62	0.621184
1.63	0.609342
1.64	0.60671
1.65	0.603421
1.66	0.615263
1.67	0.60671
1.68	0.610658
1.69	0.607697
1.7	0.611316
1.71	0.613289
1.72	0.607368
1.73	0.607368
1.74	0.606381
1.75	0.607368
1.76	0.609013
1.77	0.617566
1.78	0.605723
1.79	0.618224
1.8	0.608026
1.81	0.604407
1.82	0.607697
1.83	0.616908
1.84	0.615592
1.85	0.611973
1.86	0.615592
1.87	0.605394
1.88	0.609342
1.89	0.609671
1.9	0.612302
1.91	0.609013
1.92	0.610658
1.93	0.61296
1.94	0.610329
1.95	0.604407
1.96	0.611316
1.97	0.614276
1.98	0.618553
1.99	0.60671
2	0.609013
2.01	0.612631
2.02	0.614276
2.03	0.612631
2.04	0.609671
2.05	0.607368
2.06	0.609671
2.07	0.611316
2.08	0.60671
2.09	0.615921
2.1	0.609671
2.11	0.616579
2.12	0.61625
2.13	0.616579
2.14	0.611316
2.15	0.608026
2.16	0.615263
2.17	0.609013
2.18	0.604407
2.19	0.600789
2.2	0.602763
2.21	0.613618
2.22	0.599473
2.23	0.61296
2.24	0.610987
2.25	0.610658
2.26	0.607368
2.27	0.599144
2.28	0.603749
2.29	0.613289
2.3	0.609013
2.31	0.609342
2.32	0.602434
2.33	0.607039
2.34	0.613947
2.35	0.618553
2.36	0.604078
2.37	0.613947
2.38	0.604736
2.39	0.604736
2.4	0.611973
2.41	0.606381
2.42	0.601447
2.43	0.603092
2.44	0.614605
2.45	0.607368
2.46	0.610329
2.47	0.608684
2.48	0.601447
2.49	0.605394
2.5	0.611316
2.51	0.610658
2.52	0.611973
2.53	0.608684
2.54	0.604736
2.55	0.607368
2.56	0.608355
2.57	0.607368
2.58	0.609671
2.59	0.611316
2.6	0.607697
2.61	0.610329
2.62	0.610329
2.63	0.610329
2.64	0.614934
2.65	0.605065
2.66	0.614276
2.67	0.611644
2.68	0.605394
2.69	0.611316
2.7	0.614605
2.71	0.616908
2.72	0.616579
2.73	0.61296
2.74	0.604736
2.75	0.608026
2.76	0.60671
2.77	0.61
2.78	0.604407
2.79	0.608355
2.8	0.613289
2.81	0.610987
2.82	0.609342
2.83	0.615921
2.84	0.615921
2.85	0.613289
2.86	0.608026
2.87	0.616908
2.88	0.611644
2.89	0.613289
2.9	0.611644
2.91	0.608026
2.92	0.608026
2.93	0.609013
2.94	0.607697
2.95	0.611973
2.96	0.618553
2.97	0.602105
2.98	0.61625
2.99	0.61
3	0.601447
3.01	0.605723
3.02	0.615263
3.03	0.615263
3.04	0.611316
3.05	0.602763
3.06	0.611316
3.07	0.613618
3.08	0.615592
3.09	0.61296
3.1	0.607368
3.11	0.609013
3.12	0.612631
3.13	0.614934
3.14	0.612302
3.15	0.604736
3.16	0.597828
3.17	0.607697
3.18	0.607697
3.19	0.608684
3.2	0.610329
3.21	0.607697
3.22	0.604407
3.23	0.609671
3.24	0.607697
3.25	0.605394
3.26	0.615263
3.27	0.611644
3.28	0.611973
3.29	0.61
3.3	0.614276
3.31	0.606381
3.32	0.606052
3.33	0.613618
3.34	0.617237
3.35	0.612631
3.36	0.616908
3.37	0.601118
3.38	0.599802
3.39	0.607697
3.4	0.604736
3.41	0.600789
3.42	0.611973
3.43	0.614605
3.44	0.610329
3.45	0.615263
3.46	0.620197
3.47	0.61296
3.48	0.608684
3.49	0.610987
3.5	0.608355
3.51	0.612631
3.52	0.612631
3.53	0.608026
3.54	0.61625
3.55	0.611973
3.56	0.606381
3.57	0.610987
3.58	0.611973
3.59	0.613618
3.6	0.607039
3.61	0.61296
3.62	0.612631
3.63	0.620197
3.64	0.611973
3.65	0.60671
3.66	0.60046
3.67	0.608355
3.68	0.604407
3.69	0.613289
3.7	0.611973
3.71	0.610329
3.72	0.61296
3.73	0.611644
3.74	0.608355
3.75	0.616908
3.76	0.609342
3.77	0.615592
3.78	0.608026
3.79	0.610987
3.8	0.61625
3.81	0.609671
3.82	0.613947
3.83	0.615592
3.84	0.612302
3.85	0.610987
3.86	0.611316
3.87	0.608355
3.88	0.603092
3.89	0.615263
3.9	0.610658
3.91	0.610987
3.92	0.607039
3.93	0.604736
3.94	0.602105
3.95	0.601447
3.96	0.614605
3.97	0.609013
3.98	0.608355
3.99	0.612302
4	0.610987
4.01	0.613947
4.02	0.61
4.03	0.614276
4.04	0.614276
4.05	0.609013
4.06	0.604736
4.07	0.606381
4.08	0.612631
4.09	0.605065
4.1	0.606052
4.11	0.614605
4.12	0.611316
4.13	0.615263
4.14	0.615263
4.15	0.607697
4.16	0.610987
4.17	0.612302
4.18	0.606381
4.19	0.611973
4.2	0.603421
4.21	0.598815
4.22	0.604407
4.23	0.599802
4.24	0.602434
4.25	0.607368
4.26	0.614605
4.27	0.610987
4.28	0.612631
4.29	0.613289
4.3	0.606381
4.31	0.610987
4.32	0.607039
4.33	0.607039
4.34	0.613947
4.35	0.60671
4.36	0.604736
4.37	0.609342
4.38	0.614276
4.39	0.615263
4.4	0.611644
4.41	0.60671
4.42	0.615921
4.43	0.607039
4.44	0.611973
4.45	0.612631
4.46	0.612631
4.47	0.617895
4.48	0.610658
4.49	0.614276
4.5	0.617566
4.51	0.611973
4.52	0.608355
4.53	0.611973
4.54	0.606381
4.55	0.610987
4.56	0.610987
4.57	0.609342
4.58	0.60671
4.59	0.604736
4.6	0.608684
4.61	0.603092
4.62	0.609671
4.63	0.617895
4.64	0.606381
4.65	0.603749
4.66	0.608684
4.67	0.608355
4.68	0.609013
4.69	0.611316
4.7	0.603749
4.71	0.614934
4.72	0.608684
4.73	0.60046
4.74	0.609013
4.75	0.606381
4.76	0.605394
4.77	0.608355
4.78	0.610658
4.79	0.611644
4.8	0.612302
4.81	0.611973
4.82	0.60671
4.83	0.609013
4.84	0.604407
4.85	0.614276
4.86	0.610658
4.87	0.606381
4.88	0.608684
4.89	0.607368
4.9	0.601118
4.91	0.607039
4.92	0.607039
4.93	0.613289
4.94	0.61
4.95	0.608355
4.96	0.605394
4.97	0.609671
4.98	0.607697
4.99	0.605065
5	0.612302
5.01	0.610987
5.02	0.611316
5.03	0.614276
5.04	0.609671
5.05	0.604078
5.06	0.609342
5.07	0.602763
5.08	0.608684
5.09	0.611644
5.1	0.617237
5.11	0.612302
5.12	0.608355
5.13	0.615592
5.14	0.612631
5.15	0.599144
5.16	0.610987
5.17	0.615263
5.18	0.60671
5.19	0.605394
5.2	0.607368
5.21	0.607368
5.22	0.603749
5.23	0.61
5.24	0.614605
5.25	0.611316
5.26	0.611316
5.27	0.607368
5.28	0.607368
5.29	0.61296
5.3	0.604736
5.31	0.609013
5.32	0.620197
5.33	0.616579
5.34	0.612302
5.35	0.618882
5.36	0.61
5.37	0.613289
5.38	0.613289
5.39	0.617895
5.4	0.607697
5.41	0.607368
5.42	0.605394
5.43	0.607039
5.44	0.60671
5.45	0.614934
5.46	0.614934
5.47	0.608355
5.48	0.609342
5.49	0.604407
5.5	0.606381
5.51	0.613289
5.52	0.610329
5.53	0.614276
5.54	0.614276
5.55	0.605723
5.56	0.606052
5.57	0.609013
5.58	0.610658
5.59	0.609342
5.6	0.604078
5.61	0.608355
5.62	0.615263
5.63	0.614605
5.64	0.614605
5.65	0.609671
5.66	0.610658
5.67	0.610658
5.68	0.610329
5.69	0.617895
5.7	0.61
5.71	0.611644
5.72	0.612302
5.73	0.616908
5.74	0.612302
5.75	0.606052
5.76	0.615263
5.77	0.611644
5.78	0.614934
5.79	0.608684
5.8	0.602763
5.81	0.61
5.82	0.61
5.83	0.608026
5.84	0.611316
5.85	0.609671
5.86	0.613947
5.87	0.614934
5.88	0.610987
5.89	0.605065
5.9	0.608026
5.91	0.608026
5.92	0.598486
5.93	0.602105
5.94	0.612302
5.95	0.612302
5.96	0.607039
5.97	0.605065
5.98	0.608355
5.99	0.608026
6	0.61
6.01	0.608355
6.02	0.610987
6.03	0.613289
6.04	0.608684
6.05	0.610658
6.06	0.610329
6.07	0.607697
6.08	0.613289
6.09	0.608684
6.1	0.604078
6.11	0.604078
6.12	0.615263
6.13	0.613618
6.14	0.611316
6.15	0.613947
6.16	0.604407
6.17	0.612631
6.18	0.607368
6.19	0.608026
6.2	0.606381
6.21	0.612631
6.22	0.615263
6.23	0.611644
6.24	0.604736
6.25	0.608684
6.26	0.607368
6.27	0.607039
6.28	0.606052
6.29	0.613618
6.3	0.608684
6.31	0.608355
6.32	0.616579
6.33	0.611644
6.34	0.610658
6.35	0.613947
6.36	0.614934
6.37	0.608684
6.38	0.606381
6.39	0.615592
6.4	0.612631
6.41	0.614605
6.42	0.612631
6.43	0.613289
6.44	0.612302
6.45	0.611644
6.46	0.609013
6.47	0.611973
6.48	0.607697
6.49	0.609342
6.5	0.612302
6.51	0.603749
6.52	0.611644
6.53	0.611316
6.54	0.610658
6.55	0.609671
6.56	0.611316
6.57	0.610987
6.58	0.611316
6.59	0.612631
6.6	0.61625
6.61	0.612631
6.62	0.603421
6.63	0.603421
6.64	0.606381
6.65	0.607368
6.66	0.609342
6.67	0.603421
6.68	0.607368
6.69	0.611973
6.7	0.609671
6.71	0.620526
6.72	0.61625
6.73	0.608355
6.74	0.605065
6.75	0.603092
6.76	0.607039
6.77	0.613618
6.78	0.610658
6.79	0.599144
6.8	0.608684
6.81	0.612631
6.82	0.605394
6.83	0.607697
6.84	0.612302
6.85	0.617566
6.86	0.610987
6.87	0.615592
6.88	0.605394
6.89	0.608684
6.9	0.608355
6.91	0.611644
6.92	0.610987
6.93	0.613289
6.94	0.61
6.95	0.609342
6.96	0.60671
6.97	0.605723
6.98	0.608684
6.99	0.605065
7	0.611973
7.01	0.611316
7.02	0.617566
7.03	0.611644
7.04	0.607039
7.05	0.611973
7.06	0.61
7.07	0.610329
7.08	0.607039
7.09	0.605394
7.1	0.61
7.11	0.600131
7.12	0.607368
7.13	0.61296
7.14	0.602763
7.15	0.602105
7.16	0.608026
7.17	0.605394
7.18	0.612631
7.19	0.613289
7.2	0.609671
7.21	0.616579
7.22	0.611316
7.23	0.611644
7.24	0.613618
7.25	0.602434
7.26	0.611316
7.27	0.61
7.28	0.604078
7.29	0.60671
7.3	0.606381
7.31	0.604078
7.32	0.605065
7.33	0.611644
7.34	0.612302
7.35	0.607697
7.36	0.604407
7.37	0.613947
7.38	0.607039
7.39	0.607368
7.4	0.607368
7.41	0.607039
7.42	0.606381
7.43	0.610329
7.44	0.609671
7.45	0.606381
7.46	0.61
7.47	0.611316
7.48	0.613947
7.49	0.608684
7.5	0.612302
7.51	0.603749
7.52	0.608355
7.53	0.618553
7.54	0.618224
7.55	0.613618
7.56	0.614934
7.57	0.615263
7.58	0.610329
7.59	0.61296
7.6	0.611316
7.61	0.603421
7.62	0.60671
7.63	0.611316
7.64	0.605723
7.65	0.607368
7.66	0.61
7.67	0.603421
7.68	0.61296
7.69	0.610329
7.7	0.611973
7.71	0.619868
7.72	0.604736
7.73	0.606381
7.74	0.611973
7.75	0.607368
7.76	0.614934
7.77	0.609342
7.78	0.609671
7.79	0.608026
7.8	0.606052
7.81	0.608026
7.82	0.614276
7.83	0.605723
7.84	0.603749
7.85	0.608355
7.86	0.610329
7.87	0.609342
7.88	0.610987
7.89	0.611973
7.9	0.605394
7.91	0.608355
7.92	0.611644
7.93	0.607039
7.94	0.611644
7.95	0.61296
7.96	0.610658
7.97	0.605394
7.98	0.607368
7.99	0.607697
8	0.608026
8.01	0.60671
8.02	0.602105
8.03	0.613289
8.04	0.611316
8.05	0.613947
8.06	0.608026
8.07	0.608684
8.08	0.613289
8.09	0.614276
8.1	0.608684
8.11	0.614276
8.12	0.608026
8.13	0.606052
8.14	0.606052
8.15	0.598486
8.16	0.611316
8.17	0.609013
8.18	0.610658
8.19	0.605065
8.2	0.612302
8.21	0.608026
8.22	0.610658
8.23	0.610987
8.24	0.608355
8.25	0.615921
8.26	0.613289
8.27	0.607697
8.28	0.608355
8.29	0.605065
8.3	0.601447
8.31	0.611973
8.32	0.610658
8.33	0.60671
8.34	0.610987
8.35	0.614934
8.36	0.613618
8.37	0.607039
8.38	0.607697
8.39	0.597828
8.4	0.604407
8.41	0.604736
8.42	0.610987
8.43	0.603749
8.44	0.599473
8.45	0.61
8.46	0.612302
8.47	0.616579
8.48	0.607697
8.49	0.61296
8.5	0.617566
8.51	0.61625
8.52	0.605723
8.53	0.609671
8.54	0.617237
8.55	0.607697
8.56	0.610329
8.57	0.608026
8.58	0.618882
8.59	0.613289
8.6	0.607697
8.61	0.605723
8.62	0.605723
8.63	0.610329
8.64	0.606381
8.65	0.611316
8.66	0.615921
8.67	0.607039
8.68	0.617895
8.69	0.610329
8.7	0.609671
8.71	0.61296
8.72	0.610329
8.73	0.610987
8.74	0.606052
8.75	0.610329
8.76	0.612631
8.77	0.611644
8.78	0.616579
8.79	0.612302
8.8	0.613289
8.81	0.603749
8.82	0.609342
8.83	0.605065
8.84	0.607697
8.85	0.609342
8.86	0.612631
8.87	0.605723
8.88	0.608355
8.89	0.610987
8.9	0.605065
8.91	0.61
8.92	0.610329
8.93	0.605394
8.94	0.620526
8.95	0.609342
8.96	0.61625
8.97	0.605723
8.98	0.605394
8.99	0.614276
9	0.612302
9.01	0.613618
9.02	0.610329
9.03	0.611316
9.04	0.614276
9.05	0.607368
9.06	0.609013
9.07	0.607368
9.08	0.616579
9.09	0.609671
9.1	0.60671
9.11	0.601776
9.12	0.605723
9.13	0.609342
9.14	0.60671
9.15	0.606381
9.16	0.610658
9.17	0.618224
9.18	0.614276
9.19	0.609671
9.2	0.610658
9.21	0.611973
9.22	0.61625
9.23	0.614276
9.24	0.611973
9.25	0.606052
9.26	0.606381
9.27	0.611644
9.28	0.610658
9.29	0.609671
9.3	0.611644
9.31	0.611973
9.32	0.610329
9.33	0.60046
9.34	0.604736
9.35	0.614934
9.36	0.615592
9.37	0.609342
9.38	0.610329
9.39	0.605723
9.4	0.610987
9.41	0.608355
9.42	0.614276
9.43	0.612631
9.44	0.61
9.45	0.611316
9.46	0.60671
9.47	0.609342
9.48	0.609342
9.49	0.615592
9.5	0.611973
9.51	0.608355
9.52	0.611644
9.53	0.61296
9.54	0.604736
9.55	0.609342
9.56	0.614276
9.57	0.616579
9.58	0.613947
9.59	0.608684
9.6	0.614276
9.61	0.609342
9.62	0.615921
9.63	0.609013
9.64	0.609671
9.65	0.608684
9.66	0.607368
9.67	0.609342
9.68	0.614276
9.69	0.612302
9.7	0.604407
9.71	0.606052
9.72	0.609013
9.73	0.606381
9.74	0.612631
9.75	0.610987
9.76	0.601776
9.77	0.601776
9.78	0.612631
9.79	0.610987
9.8	0.611644
9.81	0.611644
9.82	0.605723
9.83	0.608355
9.84	0.60671
9.85	0.602105
9.86	0.606052
9.87	0.622171
9.88	0.615592
9.89	0.606381
9.9	0.615592
9.91	0.609671
9.92	0.61
9.93	0.607368
9.94	0.606052
9.95	0.604736
9.96	0.605065
9.97	0.610658
9.98	0.611973
9.99	0.611316
10	0.612302
10.01	0.605065
10.02	0.602763
10.03	0.610329
10.04	0.603421
10.05	0.606381
10.06	0.601118
10.07	0.603092
10.08	0.610658
10.09	0.604736
10.1	0.607697
10.11	0.605723
10.12	0.61296
10.13	0.606381
10.14	0.608026
10.15	0.609342
10.16	0.610329
10.17	0.609342
10.18	0.611644
10.19	0.609013
10.2	0.606381
10.21	0.611316
10.22	0.606052
10.23	0.615921
10.24	0.610987
10.25	0.610658
10.26	0.606381
10.27	0.613947
10.28	0.608684
10.29	0.610658
10.3	0.616579
10.31	0.60671
10.32	0.609013
10.33	0.606381
10.34	0.604736
10.35	0.610329
10.36	0.603421
10.37	0.610329
10.38	0.607697
10.39	0.617237
10.4	0.617895
10.41	0.60671
10.42	0.609342
10.43	0.607697
10.44	0.616908
10.45	0.608684
10.46	0.605394
10.47	0.604078
10.48	0.609342
10.49	0.613289
10.5	0.613947
10.51	0.615592
10.52	0.611644
10.53	0.611973
10.54	0.611973
10.55	0.613618
10.56	0.609342
10.57	0.608355
10.58	0.605723
10.59	0.613947
10.6	0.604407
10.61	0.603092
10.62	0.617566
10.63	0.608684
10.64	0.607368
10.65	0.607368
10.66	0.608355
10.67	0.605394
10.68	0.612302
10.69	0.610987
10.7	0.607039
10.71	0.610329
10.72	0.608684
10.73	0.612302
10.74	0.614605
10.75	0.614934
10.76	0.609013
10.77	0.607039
10.78	0.608026
10.79	0.615263
10.8	0.612631
10.81	0.606381
10.82	0.610987
10.83	0.616908
10.84	0.614605
10.85	0.617566
10.86	0.608355
10.87	0.610987
10.88	0.601447
10.89	0.609342
10.9	0.617895
10.91	0.612631
10.92	0.609013
10.93	0.609013
10.94	0.611973
10.95	0.612302
10.96	0.605394
10.97	0.610329
10.98	0.614605
10.99	0.609342
11	0.605394
11.01	0.608355
11.02	0.610987
11.03	0.609671
11.04	0.614934
11.05	0.609342
11.06	0.609013
11.07	0.603092
11.08	0.610329
11.09	0.612302
11.1	0.613289
11.11	0.604407
11.12	0.611316
11.13	0.616908
11.14	0.608355
11.15	0.613618
11.16	0.606381
11.17	0.607697
11.18	0.607039
11.19	0.608355
11.2	0.603092
11.21	0.599473
11.22	0.601118
11.23	0.607368
11.24	0.612302
11.25	0.612302
11.26	0.607039
11.27	0.60671
11.28	0.613947
11.29	0.613289
11.3	0.609013
11.31	0.615592
11.32	0.620526
11.33	0.616908
11.34	0.610987
11.35	0.614934
11.36	0.606052
11.37	0.611316
11.38	0.607368
11.39	0.609342
11.4	0.615592
11.41	0.613947
11.42	0.614605
11.43	0.615592
11.44	0.613947
11.45	0.607039
11.46	0.61
11.47	0.615263
11.48	0.612631
11.49	0.608026
11.5	0.611644
11.51	0.61625
11.52	0.606381
11.53	0.608684
11.54	0.608355
11.55	0.603421
11.56	0.607039
11.57	0.611973
11.58	0.610987
11.59	0.618882
11.6	0.610658
11.61	0.606381
11.62	0.606381
11.63	0.605723
11.64	0.61
11.65	0.607039
11.66	0.609671
11.67	0.613289
11.68	0.606052
11.69	0.614276
11.7	0.604078
11.71	0.601118
11.72	0.607368
11.73	0.602105
11.74	0.610329
11.75	0.617895
11.76	0.611644
11.77	0.605065
11.78	0.600789
11.79	0.602434
11.8	0.606052
11.81	0.61
11.82	0.613618
11.83	0.613289
11.84	0.616579
11.85	0.61
11.86	0.606052
11.87	0.610987
11.88	0.605065
11.89	0.611644
11.9	0.60671
11.91	0.605394
11.92	0.607039
11.93	0.621184
11.94	0.611316
11.95	0.614934
11.96	0.61296
11.97	0.60046
11.98	0.610658
11.99	0.610987
12	0.615592
12.01	0.608684
12.02	0.611973
12.03	0.613618
12.04	0.614934
12.05	0.608684
12.06	0.603092
12.07	0.606052
12.08	0.613947
12.09	0.61296
12.1	0.610658
12.11	0.609013
12.12	0.607039
12.13	0.613618
12.14	0.615921
12.15	0.613618
12.16	0.618553
12.17	0.61625
12.18	0.618224
12.19	0.61625
12.2	0.604078
12.21	0.603749
12.22	0.611973
12.23	0.610329
12.24	0.614276
12.25	0.609013
12.26	0.611644
12.27	0.618224
12.28	0.614934
12.29	0.606052
12.3	0.607697
12.31	0.611973
12.32	0.614605
12.33	0.618553
12.34	0.61296
12.35	0.61
12.36	0.617895
12.37	0.607368
12.38	0.608684
12.39	0.61
12.4	0.607697
12.41	0.607039
12.42	0.609342
12.43	0.610329
12.44	0.61
12.45	0.61296
12.46	0.601447
12.47	0.613947
12.48	0.608684
12.49	0.612631
12.5	0.610987
12.51	0.610658
12.52	0.611973
12.53	0.607039
12.54	0.612631
12.55	0.614934
12.56	0.618553
12.57	0.619211
12.58	0.606381
12.59	0.616908
12.6	0.614605
12.61	0.61
12.62	0.609013
12.63	0.621184
12.64	0.613947
12.65	0.601776
12.66	0.597828
12.67	0.603092
12.68	0.609342
12.69	0.614934
12.7	0.618553
12.71	0.612302
12.72	0.610987
12.73	0.61
12.74	0.608026
12.75	0.608684
12.76	0.615921
12.77	0.616908
12.78	0.61296
12.79	0.607039
12.8	0.612302
12.81	0.608355
12.82	0.607368
12.83	0.601447
12.84	0.613947
12.85	0.603749
12.86	0.603749
12.87	0.610329
12.88	0.611316
12.89	0.612631
12.9	0.616908
12.91	0.613289
12.92	0.615592
12.93	0.611316
12.94	0.60671
12.95	0.605723
12.96	0.606052
12.97	0.613618
12.98	0.608355
12.99	0.608684
13	0.606052
13.01	0.613947
13.02	0.609342
13.03	0.609013
13.04	0.618882
13.05	0.604078
13.06	0.602434
13.07	0.60671
13.08	0.614934
13.09	0.603749
13.1	0.609013
13.11	0.614934
13.12	0.623487
13.13	0.616908
13.14	0.611973
13.15	0.60671
13.16	0.607697
13.17	0.611644
13.18	0.608684
13.19	0.611316
13.2	0.615263
13.21	0.620197
13.22	0.614276
13.23	0.612631
13.24	0.609342
13.25	0.618553
13.26	0.617895
13.27	0.606381
13.28	0.606381
13.29	0.609013
13.3	0.599802
13.31	0.607368
13.32	0.608026
13.33	0.609013
13.34	0.602763
13.35	0.609671
13.36	0.615592
13.37	0.613618
13.38	0.607039
13.39	0.602763
13.4	0.60671
13.41	0.608684
13.42	0.609013
13.43	0.610658
13.44	0.611644
13.45	0.606381
13.46	0.616908
13.47	0.614605
13.48	0.606052
13.49	0.610329
13.5	0.608026
13.51	0.609013
13.52	0.610987
13.53	0.611316
13.54	0.61296
13.55	0.612302
13.56	0.610658
13.57	0.619211
13.58	0.616908
13.59	0.607368
13.6	0.610987
13.61	0.604736
13.62	0.604407
13.63	0.609671
13.64	0.616579
13.65	0.610658
13.66	0.605723
13.67	0.607697
13.68	0.61
13.69	0.61
13.7	0.600789
13.71	0.616908
13.72	0.619868
13.73	0.61296
13.74	0.609013
13.75	0.617566
13.76	0.610987
13.77	0.608026
13.78	0.607039
13.79	0.605723
13.8	0.597828
13.81	0.602763
13.82	0.604078
13.83	0.605065
13.84	0.608684
13.85	0.606381
13.86	0.604736
13.87	0.604078
13.88	0.605065
13.89	0.615263
13.9	0.610658
13.91	0.611316
13.92	0.604407
13.93	0.613947
13.94	0.60671
13.95	0.613289
13.96	0.607039
13.97	0.60046
13.98	0.601776
13.99	0.611316
14	0.608684
14.01	0.606381
14.02	0.607039
14.03	0.609342
14.04	0.607039
14.05	0.600131
14.06	0.603421
14.07	0.613947
14.08	0.614276
14.09	0.615921
14.1	0.620855
14.11	0.621842
14.12	0.611644
14.13	0.60671
14.14	0.61
14.15	0.61296
14.16	0.619868
14.17	0.613289
14.18	0.603749
14.19	0.61
14.2	0.603092
14.21	0.607368
14.22	0.613618
14.23	0.615921
14.24	0.607697
14.25	0.60671
14.26	0.612631
14.27	0.603749
14.28	0.608026
14.29	0.604078
14.3	0.607697
14.31	0.612631
14.32	0.620197
14.33	0.613618
14.34	0.615592
14.35	0.61625
14.36	0.613289
14.37	0.600789
14.38	0.598815
14.39	0.608684
14.4	0.614934
14.41	0.611973
14.42	0.614276
14.43	0.607697
14.44	0.608026
14.45	0.606381
14.46	0.60671
14.47	0.610329
14.48	0.606052
14.49	0.610987
14.5	0.61
14.51	0.604407
14.52	0.607697
14.53	0.609342
14.54	0.614934
14.55	0.615921
14.56	0.614276
14.57	0.611973
14.58	0.613618
14.59	0.61625
14.6	0.614276
14.61	0.61296
14.62	0.604736
14.63	0.613289
14.64	0.604736
14.65	0.607368
14.66	0.614934
14.67	0.614276
14.68	0.611973
14.69	0.619539
14.7	0.609671
14.71	0.607039
14.72	0.610987
14.73	0.614276
14.74	0.614276
14.75	0.605723
14.76	0.615592
14.77	0.611316
14.78	0.608355
14.79	0.61296
14.8	0.605723
14.81	0.611316
14.82	0.610987
14.83	0.614934
14.84	0.611644
14.85	0.610987
14.86	0.616908
14.87	0.611973
14.88	0.609013
14.89	0.610329
14.9	0.602434
14.91	0.606381
14.92	0.609671
14.93	0.607697
14.94	0.607368
14.95	0.607697
14.96	0.608684
14.97	0.607039
14.98	0.609013
14.99	0.606381
15	0.615592
15.01	0.609342
15.02	0.610987
15.03	0.610658
15.04	0.60671
15.05	0.610987
15.06	0.61
15.07	0.609671
15.08	0.619539
15.09	0.618553
15.1	0.608355
15.11	0.614276
15.12	0.614934
15.13	0.602763
15.14	0.61296
15.15	0.61
15.16	0.61
15.17	0.607697
15.18	0.619539
15.19	0.619211
15.2	0.613618
15.21	0.599144
15.22	0.612302
15.23	0.614605
15.24	0.613947
15.25	0.607368
15.26	0.604078
15.27	0.611973
15.28	0.611973
15.29	0.607039
15.3	0.616579
15.31	0.611973
15.32	0.608355
15.33	0.613618
15.34	0.609671
15.35	0.611644
15.36	0.615263
15.37	0.614934
15.38	0.607039
15.39	0.604078
15.4	0.600131
15.41	0.602105
15.42	0.612302
15.43	0.611644
15.44	0.611973
15.45	0.613618
15.46	0.606381
15.47	0.611973
15.48	0.613947
15.49	0.602763
15.5	0.60671
15.51	0.608026
15.52	0.60671
15.53	0.606052
15.54	0.610987
15.55	0.606052
15.56	0.611973
15.57	0.610987
15.58	0.611644
15.59	0.603749
15.6	0.607697
15.61	0.610987
15.62	0.616579
15.63	0.60671
15.64	0.605394
15.65	0.613947
15.66	0.605394
15.67	0.611973
15.68	0.616579
15.69	0.613289
15.7	0.613289
15.71	0.614276
15.72	0.614605
15.73	0.609342
15.74	0.620526
15.75	0.614605
15.76	0.613289
15.77	0.61625
15.78	0.61296
15.79	0.613947
15.8	0.611316
15.81	0.605723
15.82	0.610987
15.83	0.618553
15.84	0.618553
15.85	0.61625
15.86	0.607697
15.87	0.603421
15.88	0.603749
15.89	0.607368
15.9	0.613947
15.91	0.616908
15.92	0.607039
15.93	0.608355
15.94	0.607697
15.95	0.609013
15.96	0.612302
15.97	0.609342
15.98	0.613947
15.99	0.61296
16	0.608684
16.01	0.609671
16.02	0.619211
16.03	0.618882
16.04	0.611973
16.05	0.600131
16.06	0.605065
16.07	0.610658
16.08	0.608026
16.09	0.607697
16.1	0.603092
16.11	0.607697
16.12	0.610658
16.13	0.603092
16.14	0.609671
16.15	0.606381
16.16	0.604407
16.17	0.613289
16.18	0.615263
16.19	0.604407
16.2	0.609342
16.21	0.609342
16.22	0.607368
16.23	0.603749
16.24	0.607368
16.25	0.616908
16.26	0.613618
16.27	0.605723
16.28	0.609342
16.29	0.601118
16.3	0.606052
16.31	0.601118
16.32	0.603092
16.33	0.602763
16.34	0.614605
16.35	0.609671
16.36	0.613618
16.37	0.616579
16.38	0.614934
16.39	0.614934
16.4	0.612302
16.41	0.604736
16.42	0.612302
16.43	0.603749
16.44	0.604736
16.45	0.61296
16.46	0.606052
16.47	0.611973
16.48	0.61
16.49	0.611644
16.5	0.608684
16.51	0.618224
16.52	0.612302
16.53	0.616579
16.54	0.614276
16.55	0.613947
16.56	0.616579
16.57	0.615263
16.58	0.611644
16.59	0.60671
16.6	0.61
16.61	0.611973
16.62	0.610658
16.63	0.608355
16.64	0.613289
16.65	0.620526
16.66	0.612631
16.67	0.607039
16.68	0.613289
16.69	0.613947
16.7	0.605065
16.71	0.611973
16.72	0.608684
16.73	0.613947
16.74	0.610329
16.75	0.607368
16.76	0.605723
16.77	0.608684
16.78	0.608684
16.79	0.613289
16.8	0.611316
16.81	0.613289
16.82	0.611316
16.83	0.607039
16.84	0.613289
16.85	0.614276
16.86	0.61625
16.87	0.613289
16.88	0.611973
16.89	0.609671
16.9	0.603092
16.91	0.617237
16.92	0.610329
16.93	0.61296
16.94	0.611316
16.95	0.618224
16.96	0.618553
16.97	0.608026
16.98	0.602105
16.99	0.607697
17	0.610329
17.01	0.61296
17.02	0.610329
17.03	0.607039
17.04	0.603421
17.05	0.600131
17.06	0.608684
17.07	0.618882
17.08	0.611973
17.09	0.606381
17.1	0.600789
17.11	0.611973
17.12	0.610987
17.13	0.611316
17.14	0.610658
17.15	0.613618
17.16	0.606052
17.17	0.607368
17.18	0.610329
17.19	0.606052
17.2	0.607368
17.21	0.610987
17.22	0.605723
17.23	0.605065
17.24	0.603749
17.25	0.610658
17.26	0.604407
17.27	0.61296
17.28	0.614934
17.29	0.61296
17.3	0.616579
17.31	0.600789
17.32	0.604736
17.33	0.604736
17.34	0.61296
17.35	0.61296
17.36	0.61296
17.37	0.610658
17.38	0.611316
17.39	0.61
17.4	0.61
17.41	0.612631
17.42	0.606052
17.43	0.611644
17.44	0.61
17.45	0.605723
17.46	0.612631
17.47	0.609342
17.48	0.609342
17.49	0.61625
17.5	0.612631
17.51	0.613289
17.52	0.621184
17.53	0.607368
17.54	0.606052
17.55	0.607697
17.56	0.607368
17.57	0.613618
17.58	0.605723
17.59	0.608684
17.6	0.604736
17.61	0.603092
17.62	0.60671
17.63	0.611973
17.64	0.608684
17.65	0.605065
17.66	0.609342
17.67	0.614276
17.68	0.614276
17.69	0.614276
17.7	0.61
17.71	0.610987
17.72	0.617237
17.73	0.609671
17.74	0.615921
17.75	0.609671
17.76	0.609671
17.77	0.610329
17.78	0.607039
17.79	0.605723
17.8	0.611644
17.81	0.613618
17.82	0.619211
17.83	0.610329
17.84	0.609342
17.85	0.61296
17.86	0.610658
17.87	0.613289
17.88	0.61296
17.89	0.610329
17.9	0.610329
17.91	0.615263
17.92	0.608684
17.93	0.615592
17.94	0.604407
17.95	0.615592
17.96	0.619868
17.97	0.61
17.98	0.608684
17.99	0.61
18	0.611644
18.01	0.605723
18.02	0.616579
18.03	0.609671
18.04	0.614934
18.05	0.616579
18.06	0.611644
18.07	0.603092
18.08	0.610658
18.09	0.610329
18.1	0.621184
18.11	0.613947
18.12	0.610658
18.13	0.61296
18.14	0.610658
18.15	0.610658
18.16	0.614934
18.17	0.609671
18.18	0.603749
18.19	0.602763
18.2	0.615592
18.21	0.609342
18.22	0.609013
18.23	0.605394
18.24	0.61
18.25	0.60671
18.26	0.609342
18.27	0.611316
18.28	0.604078
18.29	0.604736
18.3	0.611644
18.31	0.614276
18.32	0.607368
18.33	0.603421
18.34	0.605065
18.35	0.618553
18.36	0.619868
18.37	0.610658
18.38	0.612302
18.39	0.613289
18.4	0.61296
18.41	0.613618
18.42	0.615921
18.43	0.603749
18.44	0.60671
18.45	0.616579
18.46	0.612302
18.47	0.618553
18.48	0.610658
18.49	0.607697
18.5	0.61625
18.51	0.614605
18.52	0.609342
18.53	0.610329
18.54	0.609013
18.55	0.607368
18.56	0.612631
18.57	0.606052
18.58	0.607368
18.59	0.605723
18.6	0.611316
18.61	0.602763
18.62	0.606052
18.63	0.620855
18.64	0.60671
18.65	0.610329
18.66	0.605723
18.67	0.602763
18.68	0.601776
18.69	0.605723
18.7	0.613289
18.71	0.609671
18.72	0.603749
18.73	0.600789
18.74	0.613947
18.75	0.608355
18.76	0.617895
18.77	0.612302
18.78	0.607697
18.79	0.610987
18.8	0.60671
18.81	0.604407
18.82	0.609013
18.83	0.607039
18.84	0.610658
18.85	0.615263
18.86	0.612631
18.87	0.605723
18.88	0.612631
18.89	0.607697
18.9	0.605065
18.91	0.608355
18.92	0.614276
18.93	0.611316
18.94	0.615592
18.95	0.613947
18.96	0.614605
18.97	0.604736
18.98	0.602763
18.99	0.607039
19	0.607368
19.01	0.614605
19.02	0.607697
19.03	0.611316
19.04	0.609671
19.05	0.613289
19.06	0.61296
19.07	0.61
19.08	0.604407
19.09	0.614605
19.1	0.611316
19.11	0.61296
19.12	0.605394
19.13	0.604078
19.14	0.609013
19.15	0.609671
19.16	0.618882
19.17	0.616908
19.18	0.614605
19.19	0.605065
19.2	0.606381
19.21	0.609013
19.22	0.614276
19.23	0.614276
19.24	0.60671
19.25	0.607039
19.26	0.603421
19.27	0.607039
19.28	0.618224
19.29	0.616579
19.3	0.609671
19.31	0.614934
19.32	0.610329
19.33	0.602763
19.34	0.607697
19.35	0.609342
19.36	0.616908
19.37	0.613618
19.38	0.609013
19.39	0.612302
19.4	0.608026
19.41	0.608355
19.42	0.616908
19.43	0.615592
19.44	0.608026
19.45	0.611316
19.46	0.614605
19.47	0.612631
19.48	0.610329
19.49	0.604407
19.5	0.605065
19.51	0.607697
19.52	0.610658
19.53	0.609342
19.54	0.608355
19.55	0.606381
19.56	0.608684
19.57	0.604407
19.58	0.608026
19.59	0.614605
19.6	0.617566
19.61	0.61296
19.62	0.609671
19.63	0.611316
19.64	0.608684
19.65	0.610987
19.66	0.613618
19.67	0.612631
19.68	0.604407
19.69	0.607697
19.7	0.613618
19.71	0.608026
19.72	0.613618
19.73	0.607368
19.74	0.60671
19.75	0.608026
19.76	0.609013
19.77	0.605723
19.78	0.602434
19.79	0.61
19.8	0.608026
19.81	0.611644
19.82	0.61
19.83	0.614934
19.84	0.614605
19.85	0.609342
19.86	0.611644
19.87	0.607697
19.88	0.622171
19.89	0.626119
19.9	0.615921
19.91	0.612302
19.92	0.611316
19.93	0.609013
19.94	0.617237
19.95	0.609342
19.96	0.610658
19.97	0.607697
19.98	0.601776
19.99	0.61
20	0.613618
20.01	0.606052
20.02	0.606052
20.03	0.602763
20.04	0.602105
20.05	0.611316
20.06	0.615263
20.07	0.60671
20.08	0.610987
20.09	0.609342
20.1	0.614276
20.11	0.618224
20.12	0.609342
20.13	0.610987
20.14	0.610329
20.15	0.609013
20.16	0.618224
20.17	0.616908
20.18	0.612302
20.19	0.610329
20.2	0.608355
20.21	0.616908
20.22	0.613618
20.23	0.610987
20.24	0.608026
20.25	0.61
20.26	0.604407
20.27	0.608355
20.28	0.604407
20.29	0.609013
20.3	0.621184
20.31	0.611644
20.32	0.609671
20.33	0.613289
20.34	0.615263
20.35	0.620197
20.36	0.614276
20.37	0.605723
20.38	0.609013
20.39	0.609342
20.4	0.611644
20.41	0.61
20.42	0.603421
20.43	0.610329
20.44	0.616579
20.45	0.608355
20.46	0.608684
20.47	0.625132
20.48	0.613618
20.49	0.606052
20.5	0.61
20.51	0.611973
20.52	0.605394
20.53	0.615921
20.54	0.612302
20.55	0.613618
20.56	0.608684
20.57	0.604736
20.58	0.608684
20.59	0.61296
20.6	0.609671
20.61	0.61
20.62	0.614605
20.63	0.617237
20.64	0.614934
20.65	0.611644
20.66	0.613618
20.67	0.606381
20.68	0.603092
20.69	0.609671
20.7	0.599473
20.71	0.603749
20.72	0.61296
20.73	0.612302
20.74	0.61296
20.75	0.616908
20.76	0.615921
20.77	0.608026
20.78	0.617895
20.79	0.610329
20.8	0.602434
20.81	0.605065
20.82	0.61
20.83	0.600131
20.84	0.601447
20.85	0.603421
20.86	0.609671
20.87	0.602434
20.88	0.614934
20.89	0.607697
20.9	0.607368
20.91	0.61296
20.92	0.609013
20.93	0.602434
20.94	0.611316
20.95	0.612302
20.96	0.611316
20.97	0.611644
20.98	0.612302
20.99	0.605723
21	0.610329
21.01	0.619539
21.02	0.610987
21.03	0.605394
21.04	0.608684
21.05	0.602434
21.06	0.611644
21.07	0.601776
21.08	0.608026
21.09	0.609671
21.1	0.607697
21.11	0.607368
21.12	0.604078
21.13	0.598486
21.14	0.604407
21.15	0.614276
21.16	0.613289
21.17	0.604736
21.18	0.613618
21.19	0.617895
21.2	0.615592
21.21	0.60671
21.22	0.604078
21.23	0.607697
21.24	0.609671
21.25	0.607039
21.26	0.609671
21.27	0.607697
21.28	0.610329
21.29	0.607697
21.3	0.604736
21.31	0.612631
21.32	0.617895
21.33	0.615921
21.34	0.609013
21.35	0.605394
21.36	0.607368
21.37	0.616908
21.38	0.610329
21.39	0.608026
21.4	0.607368
21.41	0.608684
21.42	0.61296
21.43	0.611316
21.44	0.608355
21.45	0.603421
21.46	0.614605
21.47	0.614605
21.48	0.614276
21.49	0.61
21.5	0.605394
21.51	0.615921
21.52	0.610329
21.53	0.610987
21.54	0.613947
21.55	0.610658
21.56	0.609013
21.57	0.61
21.58	0.618882
21.59	0.614605
21.6	0.603092
21.61	0.604078
21.62	0.609671
21.63	0.613289
21.64	0.611973
21.65	0.617566
21.66	0.605723
21.67	0.603421
21.68	0.611316
21.69	0.61
21.7	0.608684
21.71	0.608026
21.72	0.605394
21.73	0.611644
21.74	0.618553
21.75	0.608355
21.76	0.608355
21.77	0.611644
21.78	0.612631
21.79	0.609671
21.8	0.621184
21.81	0.603092
21.82	0.617237
21.83	0.615921
21.84	0.60671
21.85	0.607039
21.86	0.609671
21.87	0.609671
21.88	0.622171
21.89	0.614934
21.9	0.605065
21.91	0.609342
21.92	0.605394
21.93	0.60671
21.94	0.603749
21.95	0.605394
21.96	0.611316
21.97	0.607697
21.98	0.606052
21.99	0.614276
22	0.614605
22.01	0.606381
22.02	0.608026
22.03	0.606052
22.04	0.611644
22.05	0.599473
22.06	0.610987
22.07	0.614934
22.08	0.602763
22.09	0.614276
22.1	0.61296
22.11	0.61
22.12	0.611316
22.13	0.616579
22.14	0.610329
22.15	0.607697
22.16	0.610987
22.17	0.612631
22.18	0.614934
22.19	0.605394
22.2	0.613947
22.21	0.615263
22.22	0.609013
22.23	0.611973
22.24	0.607368
22.25	0.599802
22.26	0.608684
22.27	0.606381
22.28	0.608026
22.29	0.611973
22.3	0.61296
22.31	0.61
22.32	0.609671
22.33	0.608684
22.34	0.608026
22.35	0.613618
22.36	0.606052
22.37	0.611316
22.38	0.612302
22.39	0.617237
22.4	0.609342
22.41	0.614276
22.42	0.613618
22.43	0.60671
22.44	0.613618
22.45	0.617237
22.46	0.613618
22.47	0.614605
22.48	0.614605
22.49	0.617237
22.5	0.610987
22.51	0.610329
22.52	0.605065
22.53	0.608026
22.54	0.613618
22.55	0.603092
22.56	0.611316
22.57	0.611973
22.58	0.610987
22.59	0.608355
22.6	0.607039
22.61	0.609342
22.62	0.605723
22.63	0.618553
22.64	0.616579
22.65	0.610987
22.66	0.614934
22.67	0.611644
22.68	0.612631
22.69	0.609342
22.7	0.611316
22.71	0.623487
22.72	0.610658
22.73	0.607368
22.74	0.612631
22.75	0.616908
22.76	0.614276
22.77	0.609342
22.78	0.612302
22.79	0.606052
22.8	0.609342
22.81	0.608355
22.82	0.61
22.83	0.613618
22.84	0.61296
22.85	0.60671
22.86	0.609671
22.87	0.606381
22.88	0.610329
22.89	0.609013
22.9	0.609342
22.91	0.613289
22.92	0.611644
22.93	0.610329
22.94	0.611644
22.95	0.606052
22.96	0.608355
22.97	0.600131
22.98	0.607368
22.99	0.605065
23	0.614276
23.01	0.614276
23.02	0.615592
23.03	0.609671
23.04	0.611316
23.05	0.616579
23.06	0.605065
23.07	0.612302
23.08	0.605065
23.09	0.613947
23.1	0.612631
23.11	0.617895
23.12	0.620197
23.13	0.608684
23.14	0.609013
23.15	0.615921
23.16	0.610987
23.17	0.615263
23.18	0.614934
23.19	0.609342
23.2	0.607368
23.21	0.615921
23.22	0.603749
23.23	0.607039
23.24	0.608355
23.25	0.616908
23.26	0.609342
23.27	0.614276
23.28	0.60671
23.29	0.611316
23.3	0.607368
23.31	0.612631
23.32	0.610658
23.33	0.617237
23.34	0.616908
23.35	0.608026
23.36	0.60671
23.37	0.602105
23.38	0.607368
23.39	0.616579
23.4	0.608684
23.41	0.606052
23.42	0.608355
23.43	0.605065
23.44	0.611644
23.45	0.609671
23.46	0.619211
23.47	0.606381
23.48	0.606381
23.49	0.609342
23.5	0.609013
23.51	0.609671
23.52	0.608355
23.53	0.609671
23.54	0.607039
23.55	0.612631
23.56	0.611644
23.57	0.608684
23.58	0.608026
23.59	0.603749
23.6	0.611973
23.61	0.60671
23.62	0.608684
23.63	0.610658
23.64	0.610658
23.65	0.612302
23.66	0.609671
23.67	0.604736
23.68	0.615263
23.69	0.613289
23.7	0.619539
23.71	0.612302
23.72	0.60671
23.73	0.614934
23.74	0.603421
23.75	0.604078
23.76	0.616908
23.77	0.616908
23.78	0.605723
23.79	0.610987
23.8	0.609671
23.81	0.620526
23.82	0.618882
23.83	0.618882
23.84	0.614934
23.85	0.610987
23.86	0.613947
23.87	0.607039
23.88	0.60671
23.89	0.614605
23.9	0.608355
23.91	0.608026
23.92	0.607039
23.93	0.61296
23.94	0.609013
23.95	0.612631
23.96	0.603421
23.97	0.608355
23.98	0.601447
23.99	0.606052
24	0.603092
24.01	0.614605
24.02	0.610987
24.03	0.611316
24.04	0.604736
24.05	0.609342
24.06	0.61296
24.07	0.611973
24.08	0.608684
24.09	0.61296
24.1	0.610987
24.11	0.606052
24.12	0.604736
24.13	0.603092
24.14	0.616579
24.15	0.617237
24.16	0.614276
24.17	0.614276
24.18	0.610329
24.19	0.609671
24.2	0.611973
24.21	0.610329
24.22	0.613618
24.23	0.62579
24.24	0.614276
24.25	0.605394
24.26	0.609342
24.27	0.623158
24.28	0.618224
24.29	0.614605
24.3	0.608026
24.31	0.612302
24.32	0.609013
24.33	0.612302
24.34	0.600131
24.35	0.607368
24.36	0.604736
24.37	0.613947
24.38	0.613947
24.39	0.618224
24.4	0.613289
24.41	0.603092
24.42	0.605394
24.43	0.608684
24.44	0.618553
24.45	0.602105
24.46	0.602105
24.47	0.611316
24.48	0.613289
24.49	0.609013
24.5	0.611973
24.51	0.607368
24.52	0.604736
24.53	0.618882
24.54	0.610658
24.55	0.615921
24.56	0.611316
24.57	0.609342
24.58	0.613947
24.59	0.613947
24.6	0.610658
24.61	0.603092
24.62	0.607039
24.63	0.613947
24.64	0.607039
24.65	0.609013
24.66	0.604078
24.67	0.601776
24.68	0.606381
24.69	0.603421
24.7	0.609342
24.71	0.606052
24.72	0.609671
24.73	0.60671
24.74	0.607039
24.75	0.607368
24.76	0.606381
24.77	0.609013
24.78	0.610987
24.79	0.60671
24.8	0.606381
24.81	0.604078
24.82	0.610658
24.83	0.614605
24.84	0.609671
24.85	0.608026
24.86	0.618553
24.87	0.614276
24.88	0.614605
24.89	0.611973
24.9	0.602105
24.91	0.611973
24.92	0.604078
24.93	0.613618
24.94	0.609671
24.95	0.608026
24.96	0.611973
24.97	0.615921
24.98	0.616579
24.99	0.611644
25	0.614605
25.01	0.601118
25.02	0.601447
25.03	0.61625
25.04	0.611644
25.05	0.608026
25.06	0.614605
25.07	0.608026
25.08	0.601447
25.09	0.607697
25.1	0.606381
25.11	0.608684
25.12	0.603092
25.13	0.610658
25.14	0.610987
25.15	0.604407
25.16	0.607697
25.17	0.601447
25.18	0.610987
25.19	0.606052
25.2	0.606381
25.21	0.604736
25.22	0.601776
25.23	0.604407
25.24	0.609671
25.25	0.605065
25.26	0.61625
25.27	0.612631
25.28	0.606052
25.29	0.609342
25.3	0.61
25.31	0.611316
25.32	0.609342
25.33	0.602105
25.34	0.612302
25.35	0.608026
25.36	0.604407
25.37	0.603092
25.38	0.608026
25.39	0.615592
25.4	0.611316
25.41	0.617895
25.42	0.604736
25.43	0.604736
25.44	0.607368
25.45	0.60671
25.46	0.599473
25.47	0.601118
25.48	0.610329
25.49	0.609013
25.5	0.613947
25.51	0.611316
25.52	0.607368
25.53	0.609342
25.54	0.608684
25.55	0.609671
25.56	0.61
25.57	0.603749
25.58	0.605394
25.59	0.608355
25.6	0.605394
25.61	0.613289
25.62	0.616908
25.63	0.612302
25.64	0.610329
25.65	0.605723
25.66	0.604407
25.67	0.608684
25.68	0.607697
25.69	0.605065
25.7	0.61
25.71	0.609013
25.72	0.609671
25.73	0.60671
25.74	0.609671
25.75	0.61296
25.76	0.610658
25.77	0.609013
25.78	0.61296
25.79	0.620526
25.8	0.613618
25.81	0.607368
25.82	0.605394
25.83	0.609671
25.84	0.615263
25.85	0.611973
25.86	0.611973
25.87	0.613289
25.88	0.619211
25.89	0.615921
25.9	0.620526
25.91	0.616908
25.92	0.609013
25.93	0.604078
25.94	0.604407
25.95	0.606052
25.96	0.615592
25.97	0.615263
25.98	0.615592
25.99	0.606052
26	0.611973
26.01	0.615592
26.02	0.615921
26.03	0.610987
26.04	0.61
26.05	0.605065
26.06	0.609671
26.07	0.605723
26.08	0.610329
26.09	0.600789
26.1	0.61296
26.11	0.605065
26.12	0.609342
26.13	0.612631
26.14	0.616908
26.15	0.609342
26.16	0.610658
26.17	0.608684
26.18	0.612631
26.19	0.61625
26.2	0.610987
26.21	0.612302
26.22	0.620197
26.23	0.609671
26.24	0.609013
26.25	0.618224
26.26	0.609342
26.27	0.60671
26.28	0.610329
26.29	0.61
26.3	0.613618
26.31	0.611316
26.32	0.615592
26.33	0.610987
26.34	0.616579
26.35	0.620197
26.36	0.617566
26.37	0.61296
26.38	0.611316
26.39	0.602763
26.4	0.603092
26.41	0.602763
26.42	0.606381
26.43	0.612631
26.44	0.607039
26.45	0.603749
26.46	0.607697
26.47	0.606052
26.48	0.60671
26.49	0.601118
26.5	0.61296
26.51	0.60671
26.52	0.604407
26.53	0.605723
26.54	0.611316
26.55	0.611973
26.56	0.610987
26.57	0.610658
26.58	0.610658
26.59	0.612631
26.6	0.607368
26.61	0.605065
26.62	0.609013
26.63	0.610658
26.64	0.609342
26.65	0.605065
26.66	0.607368
26.67	0.610987
26.68	0.610987
26.69	0.609671
26.7	0.610329
26.71	0.615263
26.72	0.616908
26.73	0.61625
26.74	0.607039
26.75	0.614276
26.76	0.610658
26.77	0.61625
26.78	0.621184
26.79	0.615921
26.8	0.604407
26.81	0.605723
26.82	0.604407
26.83	0.610329
26.84	0.611644
26.85	0.605394
26.86	0.61
26.87	0.609671
26.88	0.613947
26.89	0.611973
26.9	0.614276
26.91	0.61296
26.92	0.604407
26.93	0.614934
26.94	0.609013
26.95	0.609342
26.96	0.611644
26.97	0.601118
26.98	0.605394
26.99	0.605394
27	0.61296
27.01	0.604078
27.02	0.605065
27.03	0.610987
27.04	0.612302
27.05	0.616908
27.06	0.614605
27.07	0.618224
27.08	0.606381
27.09	0.610658
27.1	0.617566
27.11	0.61296
27.12	0.61296
27.13	0.617895
27.14	0.610329
27.15	0.61
27.16	0.602763
27.17	0.616579
27.18	0.623816
27.19	0.61296
27.2	0.61296
27.21	0.608684
27.22	0.608684
27.23	0.605723
27.24	0.611316
27.25	0.600789
27.26	0.604078
27.27	0.614605
27.28	0.603421
27.29	0.604736
27.3	0.613618
27.31	0.615592
27.32	0.613947
27.33	0.616579
27.34	0.610329
27.35	0.61
27.36	0.608026
27.37	0.608026
27.38	0.605065
27.39	0.616579
27.4	0.612302
27.41	0.614934
27.42	0.611316
27.43	0.604407
27.44	0.618224
27.45	0.605065
27.46	0.606381
27.47	0.607697
27.48	0.612302
27.49	0.608684
27.5	0.613947
27.51	0.614934
27.52	0.611316
27.53	0.609342
27.54	0.603749
27.55	0.609342
27.56	0.607039
27.57	0.607697
27.58	0.61
27.59	0.610987
27.6	0.617237
27.61	0.609013
27.62	0.614276
27.63	0.612302
27.64	0.603092
27.65	0.613289
27.66	0.604407
27.67	0.604078
27.68	0.614934
27.69	0.607697
27.7	0.604736
27.71	0.611316
27.72	0.610987
27.73	0.608684
27.74	0.608026
27.75	0.599473
27.76	0.604078
27.77	0.613947
27.78	0.61
27.79	0.608684
27.8	0.60671
27.81	0.604736
27.82	0.606381
27.83	0.614276
27.84	0.617237
27.85	0.605065
27.86	0.610658
27.87	0.618882
27.88	0.614605
27.89	0.614934
27.9	0.61
27.91	0.611316
27.92	0.615592
27.93	0.614605
27.94	0.605723
27.95	0.608684
27.96	0.612631
27.97	0.603092
27.98	0.600131
27.99	0.604736
28	0.613289
28.01	0.610329
28.02	0.61
28.03	0.617237
28.04	0.605394
28.05	0.606052
28.06	0.606052
28.07	0.600789
28.08	0.615263
28.09	0.615263
28.1	0.60671
28.11	0.609671
28.12	0.609671
28.13	0.612631
28.14	0.614276
28.15	0.61296
28.16	0.612302
28.17	0.609013
28.18	0.613947
28.19	0.610987
28.2	0.606381
28.21	0.607697
28.22	0.602105
28.23	0.613289
28.24	0.609342
28.25	0.605723
28.26	0.609671
28.27	0.605723
28.28	0.604078
28.29	0.612631
28.3	0.611973
28.31	0.614605
28.32	0.613947
28.33	0.611644
28.34	0.604736
28.35	0.601118
28.36	0.611973
28.37	0.607697
28.38	0.608355
28.39	0.608684
28.4	0.609342
28.41	0.60671
28.42	0.608684
28.43	0.605394
28.44	0.606052
28.45	0.605065
28.46	0.610987
28.47	0.612631
28.48	0.610658
28.49	0.605394
28.5	0.616579
28.51	0.61625
28.52	0.611973
28.53	0.617566
28.54	0.611973
28.55	0.605065
28.56	0.616579
28.57	0.609013
28.58	0.608026
28.59	0.611973
28.6	0.606052
28.61	0.610658
28.62	0.610329
28.63	0.607697
28.64	0.617237
28.65	0.612631
28.66	0.60671
28.67	0.607039
28.68	0.608355
28.69	0.608355
28.7	0.609671
28.71	0.610329
28.72	0.605723
28.73	0.609671
28.74	0.605065
28.75	0.606052
28.76	0.601118
28.77	0.608355
28.78	0.612631
28.79	0.604736
28.8	0.607368
28.81	0.613289
28.82	0.608355
28.83	0.611644
28.84	0.610658
28.85	0.608355
28.86	0.602763
28.87	0.599473
28.88	0.606052
28.89	0.611973
28.9	0.607368
28.91	0.605723
28.92	0.607039
28.93	0.609671
28.94	0.600131
28.95	0.609671
28.96	0.600131
28.97	0.607368
28.98	0.609342
28.99	0.604078
29	0.607368
29.01	0.609342
29.02	0.614605
29.03	0.611973
29.04	0.605065
29.05	0.604736
29.06	0.61
29.07	0.609342
29.08	0.607039
29.09	0.604736
29.1	0.615263
29.11	0.617237
29.12	0.607368
29.13	0.615592
29.14	0.614934
29.15	0.61296
29.16	0.614276
29.17	0.611644
29.18	0.609342
29.19	0.611644
29.2	0.607039
29.21	0.601118
29.22	0.599144
29.23	0.607039
29.24	0.619868
29.25	0.613289
29.26	0.607697
29.27	0.606381
29.28	0.61296
29.29	0.620855
29.3	0.614605
29.31	0.607039
29.32	0.615263
29.33	0.610329
29.34	0.611644
29.35	0.611973
29.36	0.609013
29.37	0.615921
29.38	0.620197
29.39	0.606381
29.4	0.605394
29.41	0.610658
29.42	0.604407
29.43	0.603421
29.44	0.61
29.45	0.614934
29.46	0.607039
29.47	0.604736
29.48	0.600789
29.49	0.609013
29.5	0.614276
29.51	0.618553
29.52	0.60671
29.53	0.61
29.54	0.603749
29.55	0.610329
29.56	0.607368
29.57	0.602763
29.58	0.603749
29.59	0.605723
29.6	0.608026
29.61	0.615921
29.62	0.609342
29.63	0.615592
29.64	0.602434
29.65	0.607039
29.66	0.614276
29.67	0.609013
29.68	0.611973
29.69	0.605723
29.7	0.601776
29.71	0.613289
29.72	0.615592
29.73	0.61625
29.74	0.614605
29.75	0.611973
29.76	0.601447
29.77	0.608355
29.78	0.61296
29.79	0.610329
29.8	0.611316
29.81	0.61296
29.82	0.61625
29.83	0.61296
29.84	0.61296
29.85	0.614276
29.86	0.614276
29.87	0.611973
29.88	0.619539
29.89	0.609013
29.9	0.614276
29.91	0.611973
29.92	0.601118
29.93	0.611644
29.94	0.610987
29.95	0.608026
29.96	0.607697
29.97	0.61
29.98	0.607039
29.99	0.609342
30	0.611644
