"BIO-KINE ASCII FILE"
"_COMMENT"	"MOS-500 Spectrometer"
"_COMMENT"	"Kinetics measurement"
"_COMMENT"	"Y Unit : Volt,  X Unit : s"
"_COMMENT"	"Excitation wavelength : 380 nm"
"_COMMENT"	"Fentes bandwidth =  1 nm"
"_COMMENT"	"HV= 575V"
"_COMMENT"	"Timebase  1 =  .01 s   3001 pts"
"_SFM"	"SFM-400 /S  Advanced mode"
"_SFM"	"Ratio : S1: 2.5, S2: 0, S3: 0, S4: 1"
"_SFM"	"Content : S1: , S2: , S3: , S4:"
"_SFM"	"Concentration : S1: , S2: , S3: , S4:"
"_SFM"	"Total volume : 209 µl  Flow : 3.5 mL/s"
"_SFM"	"Acquisition start :  10 ms before stop"
"_SFM"	"cuve=FC-15, s1=10 ml , s2=10 ml , s3=10 ml , s4=1.9 ml"
"_UNITX"	"s"
"_UNITY"	"Volt"
"_DELTAX"	0
"_DATA"
1e-300	5.80392
0.01	6.16676
0.02	6.34637
0.03	6.39374
0.04	6.38453
0.05	6.38847
0.06	6.39736
0.07	6.40657
0.08	6.41907
0.09	6.42433
0.1	6.42236
0.11	6.42268
0.12	6.42005
0.13	6.42137
0.14	6.42499
0.15	6.42926
0.16	6.42828
0.17	6.42795
0.18	6.42532
0.19	6.42565
0.2	6.42565
0.21	6.41446
0.22	6.41775
0.23	6.41051
0.24	6.41446
0.25	6.41709
0.26	6.4069
0.27	6.39966
0.28	6.3967
0.29	6.39604
0.3	6.39242
0.31	6.3865
0.32	6.39439
0.33	6.38091
0.34	6.37828
0.35	6.37597
0.36	6.3717
0.37	6.36545
0.38	6.36413
0.39	6.36281
0.4	6.35985
0.41	6.36117
0.42	6.34933
0.43	6.34209
0.44	6.34439
0.45	6.33781
0.46	6.33354
0.47	6.33354
0.48	6.32696
0.49	6.32597
0.5	6.31873
0.51	6.31775
0.52	6.30854
0.53	6.31117
0.54	6.30623
0.55	6.30229
0.56	6.29439
0.57	6.29143
0.58	6.29308
0.59	6.28781
0.6	6.27959
0.61	6.27498
0.62	6.27071
0.63	6.27005
0.64	6.26051
0.65	6.25854
0.66	6.25755
0.67	6.24702
0.68	6.24801
0.69	6.24275
0.7	6.23682
0.71	6.23222
0.72	6.22334
0.73	6.224
0.74	6.21873
0.75	6.21413
0.76	6.21577
0.77	6.21084
0.78	6.20426
0.79	6.20426
0.8	6.20064
0.81	6.19406
0.82	6.18715
0.83	6.18255
0.84	6.1809
0.85	6.17597
0.86	6.16511
0.87	6.16774
0.88	6.15755
0.89	6.16116
0.9	6.1559
0.91	6.1559
0.92	6.14801
0.93	6.13945
0.94	6.13452
0.95	6.12827
0.96	6.12893
0.97	6.12366
0.98	6.11676
0.99	6.11478
1	6.10261
1.01	6.10656
1.02	6.10425
1.03	6.09702
1.04	6.09077
1.05	6.07794
1.06	6.07629
1.07	6.07728
1.08	6.06906
1.09	6.06906
1.1	6.05919
1.11	6.05491
1.12	6.05491
1.13	6.04735
1.14	6.0411
1.15	6.03287
1.16	6.02399
1.17	6.02136
1.18	6.02399
1.19	6.01873
1.2	6.01017
1.21	6.00261
1.22	5.99603
1.23	5.99373
1.24	5.99307
1.25	5.98748
1.26	5.97201
1.27	5.9707
1.28	5.97136
1.29	5.97169
1.3	5.96346
1.31	5.95919
1.32	5.94833
1.33	5.94636
1.34	5.94109
1.35	5.93451
1.36	5.92629
1.37	5.93155
1.38	5.93155
1.39	5.92201
1.4	5.91675
1.41	5.91346
1.42	5.90885
1.43	5.9026
1.44	5.89964
1.45	5.89931
1.46	5.88681
1.47	5.88352
1.48	5.87234
1.49	5.87333
1.5	5.86543
1.51	5.84997
1.52	5.85491
1.53	5.85293
1.54	5.84602
1.55	5.84635
1.56	5.83813
1.57	5.8299
1.58	5.82892
1.59	5.82365
1.6	5.82069
1.61	5.81576
1.62	5.80754
1.63	5.80556
1.64	5.80458
1.65	5.79372
1.66	5.78911
1.67	5.78352
1.68	5.77661
1.69	5.77661
1.7	5.76839
1.71	5.76247
1.72	5.75786
1.73	5.75293
1.74	5.75096
1.75	5.74306
1.76	5.7378
1.77	5.73253
1.78	5.7322
1.79	5.72267
1.8	5.71674
1.81	5.7128
1.82	5.71049
1.83	5.70293
1.84	5.68944
1.85	5.68911
1.86	5.68549
1.87	5.68352
1.88	5.68352
1.89	5.67694
1.9	5.67595
1.91	5.66839
1.92	5.65424
1.93	5.65556
1.94	5.65128
1.95	5.64503
1.96	5.63714
1.97	5.63121
1.98	5.6299
1.99	5.62398
2	5.62595
2.01	5.62069
2.02	5.60885
2.03	5.60983
2.04	5.60358
2.05	5.59075
2.06	5.5901
2.07	5.58713
2.08	5.58056
2.09	5.57036
2.1	5.56575
2.11	5.56641
2.12	5.56049
2.13	5.55555
2.14	5.54832
2.15	5.54338
2.16	5.53976
2.17	5.53615
2.18	5.5322
2.19	5.52924
2.2	5.52397
2.21	5.51937
2.22	5.5095
2.23	5.50753
2.24	5.50358
2.25	5.49207
2.26	5.48812
2.27	5.48253
2.28	5.47233
2.29	5.47332
2.3	5.4697
2.31	5.46707
2.32	5.45391
2.33	5.4493
2.34	5.45325
2.35	5.43812
2.36	5.43252
2.37	5.42496
2.38	5.42693
2.39	5.42167
2.4	5.41213
2.41	5.41114
2.42	5.40818
2.43	5.39798
2.44	5.39075
2.45	5.38812
2.46	5.38746
2.47	5.38055
2.48	5.37956
2.49	5.37496
2.5	5.36904
2.51	5.35752
2.52	5.35752
2.53	5.35325
2.54	5.35259
2.55	5.34732
2.56	5.34042
2.57	5.33351
2.58	5.3345
2.59	5.33121
2.6	5.32463
2.61	5.31706
2.62	5.31311
2.63	5.31246
2.64	5.30357
2.65	5.30061
2.66	5.2993
2.67	5.29272
2.68	5.28515
2.69	5.28581
2.7	5.27956
2.71	5.27594
2.72	5.27495
2.73	5.26476
2.74	5.26476
2.75	5.26081
2.76	5.25489
2.77	5.24864
2.78	5.24798
2.79	5.24239
2.8	5.23844
2.81	5.2266
2.82	5.22265
2.83	5.22594
2.84	5.21706
2.85	5.21114
2.86	5.21147
2.87	5.20522
2.88	5.19173
2.89	5.18679
2.9	5.18285
2.91	5.18482
2.92	5.17791
2.93	5.17067
2.94	5.16607
2.95	5.16508
2.96	5.15258
2.97	5.14798
2.98	5.14896
2.99	5.14535
3	5.1414
3.01	5.1391
3.02	5.13482
3.03	5.12462
3.04	5.11442
3.05	5.11311
3.06	5.1164
3.07	5.10455
3.08	5.10455
3.09	5.10126
3.1	5.0937
3.11	5.08745
3.12	5.08251
3.13	5.07462
3.14	5.07265
3.15	5.06508
3.16	5.06738
3.17	5.05751
3.18	5.05521
3.19	5.05258
3.2	5.04567
3.21	5.04403
3.22	5.03745
3.23	5.03251
3.24	5.02857
3.25	5.02363
3.26	5.01903
3.27	5.01508
3.28	5.01639
3.29	5.01245
3.3	5.00554
3.31	4.99863
3.32	4.99139
3.33	4.99106
3.34	4.98054
3.35	4.97791
3.36	4.97988
3.37	4.97198
3.38	4.96968
3.39	4.96277
3.4	4.96047
3.41	4.95291
3.42	4.95323
3.43	4.94534
3.44	4.93975
3.45	4.93185
3.46	4.92922
3.47	4.93152
3.48	4.92231
3.49	4.9154
3.5	4.9131
3.51	4.90784
3.52	4.90356
3.53	4.90389
3.54	4.90126
3.55	4.89698
3.56	4.89402
3.57	4.88711
3.58	4.88711
3.59	4.88152
3.6	4.87659
3.61	4.86869
3.62	4.86738
3.63	4.86343
3.64	4.86014
3.65	4.8529
3.66	4.85422
3.67	4.84435
3.68	4.84402
3.69	4.84172
3.7	4.83481
3.71	4.83613
3.72	4.82988
3.73	4.81869
3.74	4.81672
3.75	4.81178
3.76	4.80816
3.77	4.80257
3.78	4.8006
3.79	4.79566
3.8	4.79797
3.81	4.79237
3.82	4.78908
3.83	4.78678
3.84	4.77856
3.85	4.77297
3.86	4.77165
3.87	4.77
3.88	4.76803
3.89	4.75915
3.9	4.75816
3.91	4.75191
3.92	4.75191
3.93	4.73941
3.94	4.73941
3.95	4.73941
3.96	4.73744
3.97	4.7325
3.98	4.72395
3.99	4.71902
4	4.7177
4.01	4.71211
4.02	4.70882
4.03	4.7029
4.04	4.70356
4.05	4.69369
4.06	4.69731
4.07	4.69369
4.08	4.69073
4.09	4.68382
4.1	4.68184
4.11	4.67757
4.12	4.67592
4.13	4.67099
4.14	4.66638
4.15	4.66474
4.16	4.6575
4.17	4.64665
4.18	4.6473
4.19	4.64928
4.2	4.64336
4.21	4.64303
4.22	4.63546
4.23	4.63513
4.24	4.63382
4.25	4.62691
4.26	4.62197
4.27	4.61836
4.28	4.61605
4.29	4.61276
4.3	4.61046
4.31	4.60717
4.32	4.60585
4.33	4.60026
4.34	4.59467
4.35	4.58941
4.36	4.59237
4.37	4.58678
4.38	4.58184
4.39	4.5848
4.4	4.57493
4.41	4.57428
4.42	4.56868
4.43	4.56868
4.44	4.56342
4.45	4.55947
4.46	4.55651
4.47	4.55322
4.48	4.55487
4.49	4.54796
4.5	4.5427
4.51	4.54401
4.52	4.5427
4.53	4.54434
4.54	4.53217
4.55	4.52855
4.56	4.52296
4.57	4.52691
4.58	4.51934
4.59	4.51177
4.6	4.51144
4.61	4.51079
4.62	4.51079
4.63	4.50454
4.64	4.50158
4.65	4.49861
4.66	4.49401
4.67	4.48677
4.68	4.49236
4.69	4.48546
4.7	4.48282
4.71	4.47493
4.72	4.47427
4.73	4.47131
4.74	4.46868
4.75	4.46934
4.76	4.46703
4.77	4.4598
4.78	4.45717
4.79	4.45947
4.8	4.4598
4.81	4.45157
4.82	4.44401
4.83	4.44664
4.84	4.44072
4.85	4.44006
4.86	4.43348
4.87	4.43151
4.88	4.43381
4.89	4.42756
4.9	4.42657
4.91	4.42361
4.92	4.41605
4.93	4.41243
4.94	4.41341
4.95	4.41144
4.96	4.40947
4.97	4.40684
4.98	4.3973
4.99	4.39203
5	4.39828
5.01	4.39072
5.02	4.39203
5.03	4.38776
5.04	4.38282
5.05	4.37887
5.06	4.37822
5.07	4.37065
5.08	4.37427
5.09	4.37262
5.1	4.36736
5.11	4.36177
5.12	4.36637
5.13	4.36078
5.14	4.35453
5.15	4.34729
5.16	4.34335
5.17	4.33841
5.18	4.34269
5.19	4.33677
5.2	4.33874
5.21	4.33578
5.22	4.33282
5.23	4.32657
5.24	4.32328
5.25	4.319
5.26	4.31736
5.27	4.31571
5.28	4.31374
5.29	4.30716
5.3	4.3065
5.31	4.30321
5.32	4.29992
5.33	4.29762
5.34	4.29565
5.35	4.29137
5.36	4.2917
5.37	4.28808
5.38	4.28512
5.39	4.28677
5.4	4.28578
5.41	4.28183
5.42	4.27657
5.43	4.2815
5.44	4.27459
5.45	4.27196
5.46	4.26473
5.47	4.26703
5.48	4.26111
5.49	4.26012
5.5	4.26111
5.51	4.25486
5.52	4.25486
5.53	4.24992
5.54	4.24367
5.55	4.2417
5.56	4.24729
5.57	4.2463
5.58	4.24959
5.59	4.24071
5.6	4.2338
5.61	4.2338
5.62	4.23644
5.63	4.23019
5.64	4.23117
5.65	4.22657
5.66	4.22722
5.67	4.22755
5.68	4.22032
5.69	4.22525
5.7	4.21966
5.71	4.21604
5.72	4.21374
5.73	4.21308
5.74	4.20782
5.75	4.20847
5.76	4.20979
5.77	4.20716
5.78	4.20782
5.79	4.20025
5.8	4.19762
5.81	4.19268
5.82	4.19893
5.83	4.19795
5.84	4.19104
5.85	4.19038
5.86	4.18479
5.87	4.17689
5.88	4.17657
5.89	4.17953
5.9	4.17492
5.91	4.17426
5.92	4.17328
5.93	4.16538
5.94	4.16439
5.95	4.16012
5.96	4.1667
5.97	4.15979
5.98	4.15913
5.99	4.15617
6	4.15387
6.01	4.14959
6.02	4.15124
6.03	4.14729
6.04	4.14696
6.05	4.144
6.06	4.14301
6.07	4.13874
6.08	4.13643
6.09	4.1361
6.1	4.13347
6.11	4.13117
6.12	4.13479
6.13	4.1292
6.14	4.12854
6.15	4.12393
6.16	4.12393
6.17	4.1213
6.18	4.12327
6.19	4.119
6.2	4.11439
6.21	4.11439
6.22	4.11406
6.23	4.10485
6.24	4.10748
6.25	4.10683
6.26	4.10222
6.27	4.1065
6.28	4.10025
6.29	4.09729
6.3	4.09992
6.31	4.09498
6.32	4.094
6.33	4.09202
6.34	4.08709
6.35	4.08906
6.36	4.08511
6.37	4.08577
6.38	4.08314
6.39	4.08117
6.4	4.07886
6.41	4.0759
6.42	4.07459
6.43	4.069
6.44	4.06867
6.45	4.07097
6.46	4.06998
6.47	4.06932
6.48	4.06801
6.49	4.06472
6.5	4.05946
6.51	4.06307
6.52	4.0634
6.53	4.06275
6.54	4.05847
6.55	4.05485
6.56	4.05057
6.57	4.05419
6.58	4.05419
6.59	4.04893
6.6	4.05222
6.61	4.04202
6.62	4.04367
6.63	4.04992
6.64	4.04169
6.65	4.03906
6.66	4.04202
6.67	4.03807
6.68	4.03939
6.69	4.03413
6.7	4.03544
6.71	4.03906
6.72	4.03051
6.73	4.02919
6.74	4.02524
6.75	4.02097
6.76	4.02393
6.77	4.02557
6.78	4.01636
6.79	4.01373
6.8	4.01768
6.81	4.01209
6.82	4.01439
6.83	4.01242
6.84	4.00847
6.85	4.01209
6.86	4.00682
6.87	4.01274
6.88	4.00814
6.89	3.99991
6.9	4.00353
6.91	4.00123
6.92	3.99564
6.93	3.99794
6.94	3.99695
6.95	3.99695
6.96	3.99334
6.97	3.98972
6.98	3.99366
6.99	3.99366
7	3.98741
7.01	3.98445
7.02	3.98478
7.03	3.98676
7.04	3.97985
7.05	3.98018
7.06	3.97787
7.07	3.97459
7.08	3.97491
7.09	3.97261
7.1	3.97952
7.11	3.97722
7.12	3.97491
7.13	3.9657
7.14	3.96702
7.15	3.96735
7.16	3.96274
7.17	3.96603
7.18	3.96077
7.19	3.96373
7.2	3.96241
7.21	3.95814
7.22	3.96011
7.23	3.95814
7.24	3.95978
7.25	3.95419
7.26	3.95189
7.27	3.95024
7.28	3.95156
7.29	3.94728
7.3	3.94926
7.31	3.94958
7.32	3.9486
7.33	3.94399
7.34	3.94531
7.35	3.9486
7.36	3.94531
7.37	3.94103
7.38	3.93873
7.39	3.94169
7.4	3.9384
7.41	3.93972
7.42	3.9407
7.43	3.93445
7.44	3.92919
7.45	3.93018
7.46	3.93445
7.47	3.93643
7.48	3.93116
7.49	3.92228
7.5	3.92491
7.51	3.9259
7.52	3.91833
7.53	3.92722
7.54	3.92393
7.55	3.91866
7.56	3.92064
7.57	3.92064
7.58	3.91603
7.59	3.91899
7.6	3.91669
7.61	3.91504
7.62	3.90945
7.63	3.91208
7.64	3.9111
7.65	3.91143
7.66	3.90912
7.67	3.90386
7.68	3.91143
7.69	3.90583
7.7	3.90814
7.71	3.90156
7.72	3.90254
7.73	3.90189
7.74	3.89761
7.75	3.90254
7.76	3.89728
7.77	3.89794
7.78	3.89366
7.79	3.89037
7.8	3.89235
7.81	3.89432
7.82	3.89267
7.83	3.88971
7.84	3.8907
7.85	3.89136
7.86	3.88873
7.87	3.88642
7.88	3.88445
7.89	3.88281
7.9	3.88412
7.91	3.88478
7.92	3.88017
7.93	3.88116
7.94	3.87623
7.95	3.87458
7.96	3.87721
7.97	3.87656
7.98	3.87919
7.99	3.87754
8	3.87392
8.01	3.87294
8.02	3.87425
8.03	3.87392
8.04	3.87425
8.05	3.87688
8.06	3.87162
8.07	3.87261
8.08	3.87031
8.09	3.87031
8.1	3.87359
8.11	3.86734
8.12	3.86734
8.13	3.87096
8.14	3.86702
8.15	3.87096
8.16	3.86833
8.17	3.86471
8.18	3.85846
8.19	3.86142
8.2	3.86109
8.21	3.86307
8.22	3.86208
8.23	3.86077
8.24	3.85978
8.25	3.85945
8.26	3.85879
8.27	3.85846
8.28	3.85912
8.29	3.85682
8.3	3.8532
8.31	3.85221
8.32	3.85123
8.33	3.85517
8.34	3.84695
8.35	3.84761
8.36	3.84925
8.37	3.85254
8.38	3.84859
8.39	3.8532
8.4	3.84728
8.41	3.84728
8.42	3.84465
8.43	3.83971
8.44	3.84794
8.45	3.84234
8.46	3.84004
8.47	3.84267
8.48	3.84037
8.49	3.8384
8.5	3.83642
8.51	3.83938
8.52	3.83576
8.53	3.83445
8.54	3.83182
8.55	3.83675
8.56	3.83346
8.57	3.83116
8.58	3.83412
8.59	3.83511
8.6	3.83248
8.61	3.83083
8.62	3.82919
8.63	3.83116
8.64	3.83017
8.65	3.8259
8.66	3.82458
8.67	3.8259
8.68	3.82688
8.69	3.82491
8.7	3.82458
8.71	3.81932
8.72	3.82096
8.73	3.82392
8.74	3.8203
8.75	3.82261
8.76	3.81932
8.77	3.81932
8.78	3.81438
8.79	3.81603
8.8	3.81866
8.81	3.8157
8.82	3.81504
8.83	3.81208
8.84	3.81537
8.85	3.818
8.86	3.81504
8.87	3.80813
8.88	3.80649
8.89	3.80583
8.9	3.80912
8.91	3.80057
8.92	3.80583
8.93	3.80747
8.94	3.80616
8.95	3.80122
8.96	3.80517
8.97	3.80583
8.98	3.80386
8.99	3.80353
9	3.79859
9.01	3.79958
9.02	3.79761
9.03	3.80254
9.04	3.80024
9.05	3.80155
9.06	3.79366
9.07	3.79892
9.08	3.79728
9.09	3.79629
9.1	3.80057
9.11	3.79629
9.12	3.79201
9.13	3.79004
9.14	3.79728
9.15	3.793
9.16	3.79497
9.17	3.79497
9.18	3.78609
9.19	3.79201
9.2	3.79892
9.21	3.79497
9.22	3.78938
9.23	3.79629
9.24	3.79234
9.25	3.78971
9.26	3.7907
9.27	3.78609
9.28	3.78807
9.29	3.78379
9.3	3.79136
9.31	3.79037
9.32	3.78774
9.33	3.78478
9.34	3.78412
9.35	3.7828
9.36	3.78543
9.37	3.78609
9.38	3.78872
9.39	3.78543
9.4	3.78938
9.41	3.78511
9.42	3.78807
9.43	3.7805
9.44	3.7805
9.45	3.78478
9.46	3.78872
9.47	3.78543
9.48	3.78379
9.49	3.78872
9.5	3.78149
9.51	3.78182
9.52	3.78511
9.53	3.78445
9.54	3.78182
9.55	3.77721
9.56	3.77688
9.57	3.77688
9.58	3.77984
9.59	3.77589
9.6	3.77228
9.61	3.77589
9.62	3.77524
9.63	3.77326
9.64	3.76964
9.65	3.77524
9.66	3.77359
9.67	3.77228
9.68	3.77228
9.69	3.768
9.7	3.768
9.71	3.76866
9.72	3.76866
9.73	3.76438
9.74	3.76964
9.75	3.76109
9.76	3.76241
9.77	3.76537
9.78	3.768
9.79	3.76339
9.8	3.76372
9.81	3.76076
9.82	3.76405
9.83	3.76701
9.84	3.76504
9.85	3.76405
9.86	3.75714
9.87	3.75747
9.88	3.7555
9.89	3.75879
9.9	3.75879
9.91	3.76076
9.92	3.75846
9.93	3.7578
9.94	3.7601
9.95	3.7578
9.96	3.75616
9.97	3.75714
9.98	3.75155
9.99	3.75056
10	3.75418
10.01	3.75418
10.02	3.75649
10.03	3.75024
10.04	3.75451
10.05	3.75353
10.06	3.75024
10.07	3.75649
10.08	3.7578
10.09	3.75221
10.1	3.74695
10.11	3.75122
10.12	3.75517
10.13	3.7532
10.14	3.75451
10.15	3.75122
10.16	3.74859
10.17	3.75221
10.18	3.74991
10.19	3.75254
10.2	3.74826
10.21	3.75122
10.22	3.74826
10.23	3.75155
10.24	3.74925
10.25	3.74399
10.26	3.75122
10.27	3.75517
10.28	3.75056
10.29	3.74826
10.3	3.74958
10.31	3.74859
10.32	3.75056
10.33	3.74859
10.34	3.74728
10.35	3.74662
10.36	3.74464
10.37	3.74333
10.38	3.74234
10.39	3.74991
10.4	3.75155
10.41	3.74234
10.42	3.74102
10.43	3.7407
10.44	3.74563
10.45	3.74366
10.46	3.74102
10.47	3.73477
10.48	3.73642
10.49	3.73708
10.5	3.73938
10.51	3.73247
10.52	3.73346
10.53	3.72951
10.54	3.7305
10.55	3.73412
10.56	3.73379
10.57	3.73445
10.58	3.73412
10.59	3.73346
10.6	3.73477
10.61	3.73247
10.62	3.7305
10.63	3.73116
10.64	3.73083
10.65	3.73313
10.66	3.73642
10.67	3.7328
10.68	3.7328
10.69	3.7328
10.7	3.73149
10.71	3.73083
10.72	3.72787
10.73	3.72622
10.74	3.73017
10.75	3.73181
10.76	3.73017
10.77	3.72556
10.78	3.72885
10.79	3.7282
10.8	3.72918
10.81	3.72754
10.82	3.7203
10.83	3.72359
10.84	3.72885
10.85	3.72951
10.86	3.72688
10.87	3.7305
10.88	3.72688
10.89	3.72359
10.9	3.72326
10.91	3.72458
10.92	3.72556
10.93	3.72227
10.94	3.72589
10.95	3.72655
10.96	3.72326
10.97	3.7282
10.98	3.72556
10.99	3.72063
11	3.72392
11.01	3.72458
11.02	3.72622
11.03	3.7282
11.04	3.72852
11.05	3.72227
11.06	3.72227
11.07	3.72392
11.08	3.72293
11.09	3.72129
11.1	3.71997
11.11	3.72063
11.12	3.71866
11.13	3.72195
11.14	3.71997
11.15	3.72227
11.16	3.72458
11.17	3.72227
11.18	3.72063
11.19	3.7157
11.2	3.72293
11.21	3.71668
11.22	3.72063
11.23	3.71504
11.24	3.71537
11.25	3.71931
11.26	3.718
11.27	3.71339
11.28	3.71076
11.29	3.71306
11.3	3.71339
11.31	3.71471
11.32	3.718
11.33	3.7157
11.34	3.71734
11.35	3.71339
11.36	3.70977
11.37	3.71635
11.38	3.71372
11.39	3.71109
11.4	3.70912
11.41	3.71208
11.42	3.71306
11.43	3.71668
11.44	3.71405
11.45	3.71405
11.46	3.71043
11.47	3.70813
11.48	3.70944
11.49	3.71109
11.5	3.70977
11.51	3.71076
11.52	3.70681
11.53	3.70846
11.54	3.70714
11.55	3.7078
11.56	3.70747
11.57	3.70484
11.58	3.7055
11.59	3.71076
11.6	3.7078
11.61	3.70287
11.62	3.70813
11.63	3.70648
11.64	3.7055
11.65	3.70287
11.66	3.70287
11.67	3.70056
11.68	3.70122
11.69	3.70254
11.7	3.69991
11.71	3.70714
11.72	3.70221
11.73	3.70352
11.74	3.70681
11.75	3.70648
11.76	3.70451
11.77	3.70056
11.78	3.69892
11.79	3.69925
11.8	3.70319
11.81	3.70089
11.82	3.70287
11.83	3.70254
11.84	3.70418
11.85	3.70451
11.86	3.70385
11.87	3.69727
11.88	3.70188
11.89	3.70254
11.9	3.70648
11.91	3.70583
11.92	3.7055
11.93	3.70319
11.94	3.70583
11.95	3.70681
11.96	3.70385
11.97	3.70155
11.98	3.70352
11.99	3.70385
12	3.70122
12.01	3.70089
12.02	3.70714
12.03	3.7055
12.04	3.70122
12.05	3.69497
12.06	3.70056
12.07	3.69892
12.08	3.70418
12.09	3.70122
12.1	3.70089
12.11	3.69859
12.12	3.70089
12.13	3.70122
12.14	3.69662
12.15	3.69662
12.16	3.69991
12.17	3.69563
12.18	3.69925
12.19	3.70056
12.2	3.69365
12.21	3.69333
12.22	3.69826
12.23	3.70089
12.24	3.69563
12.25	3.69892
12.26	3.69991
12.27	3.69925
12.28	3.69958
12.29	3.69497
12.3	3.69793
12.31	3.69694
12.32	3.70056
12.33	3.69892
12.34	3.693
12.35	3.69497
12.36	3.69267
12.37	3.69464
12.38	3.6953
12.39	3.69793
12.4	3.69892
12.41	3.69398
12.42	3.69431
12.43	3.6953
12.44	3.69793
12.45	3.69925
12.46	3.69497
12.47	3.69398
12.48	3.68938
12.49	3.68872
12.5	3.69201
12.51	3.69135
12.52	3.69596
12.53	3.69135
12.54	3.69563
12.55	3.69168
12.56	3.69102
12.57	3.69497
12.58	3.69004
12.59	3.68806
12.6	3.69234
12.61	3.69069
12.62	3.693
12.63	3.68872
12.64	3.68477
12.65	3.68609
12.66	3.6851
12.67	3.68609
12.68	3.68444
12.69	3.68379
12.7	3.68148
12.71	3.67918
12.72	3.68148
12.73	3.68543
12.74	3.68477
12.75	3.68115
12.76	3.6805
12.77	3.68379
12.78	3.68214
12.79	3.68675
12.8	3.6874
12.81	3.68708
12.82	3.68214
12.83	3.67984
12.84	3.67918
12.85	3.6805
12.86	3.68379
12.87	3.68346
12.88	3.67951
12.89	3.68609
12.9	3.68313
12.91	3.67852
12.92	3.67951
12.93	3.67984
12.94	3.68214
12.95	3.67918
12.96	3.68017
12.97	3.67951
12.98	3.67885
12.99	3.67918
13	3.67819
13.01	3.67392
13.02	3.67392
13.03	3.6805
13.04	3.67852
13.05	3.67754
13.06	3.68115
13.07	3.67885
13.08	3.6828
13.09	3.67819
13.1	3.67918
13.11	3.68148
13.12	3.67786
13.13	3.67655
13.14	3.68379
13.15	3.6805
13.16	3.67918
13.17	3.68576
13.18	3.68313
13.19	3.67984
13.2	3.67754
13.21	3.68313
13.22	3.68083
13.23	3.67721
13.24	3.67721
13.25	3.68412
13.26	3.68313
13.27	3.68083
13.28	3.6828
13.29	3.67984
13.3	3.6851
13.31	3.67951
13.32	3.68247
13.33	3.68181
13.34	3.68247
13.35	3.67984
13.36	3.68115
13.37	3.67293
13.38	3.67688
13.39	3.67885
13.4	3.67721
13.41	3.67688
13.42	3.6805
13.43	3.67885
13.44	3.6726
13.45	3.68017
13.46	3.68247
13.47	3.67852
13.48	3.67786
13.49	3.67852
13.5	3.67885
13.51	3.67655
13.52	3.6749
13.53	3.67721
13.54	3.67589
13.55	3.67721
13.56	3.67622
13.57	3.67129
13.58	3.67293
13.59	3.6749
13.6	3.67688
13.61	3.67326
13.62	3.67096
13.63	3.67622
13.64	3.67293
13.65	3.67359
13.66	3.66931
13.67	3.66898
13.68	3.66471
13.69	3.67721
13.7	3.67194
13.71	3.67227
13.72	3.66536
13.73	3.66997
13.74	3.66931
13.75	3.67161
13.76	3.67227
13.77	3.67227
13.78	3.67458
13.79	3.66997
13.8	3.67392
13.81	3.66734
13.82	3.66931
13.83	3.6703
13.84	3.67359
13.85	3.67326
13.86	3.66898
13.87	3.66833
13.88	3.66734
13.89	3.66865
13.9	3.66964
13.91	3.6703
13.92	3.66767
13.93	3.66569
13.94	3.66997
13.95	3.66536
13.96	3.67161
13.97	3.66931
13.98	3.66668
13.99	3.66602
14	3.66339
14.01	3.66569
14.02	3.66569
14.03	3.66701
14.04	3.66931
14.05	3.66536
14.06	3.66372
14.07	3.66964
14.08	3.66668
14.09	3.66043
14.1	3.66405
14.11	3.65911
14.12	3.6624
14.13	3.66339
14.14	3.66536
14.15	3.66635
14.16	3.66339
14.17	3.66273
14.18	3.6601
14.19	3.66043
14.2	3.66076
14.21	3.66931
14.22	3.6624
14.23	3.6578
14.24	3.6624
14.25	3.66569
14.26	3.66471
14.27	3.66405
14.28	3.65813
14.29	3.66273
14.3	3.66471
14.31	3.66405
14.32	3.66339
14.33	3.66076
14.34	3.65813
14.35	3.66043
14.36	3.65714
14.37	3.66339
14.38	3.66175
14.39	3.6601
14.4	3.66175
14.41	3.66273
14.42	3.65879
14.43	3.66306
14.44	3.65944
14.45	3.6601
14.46	3.66142
14.47	3.66076
14.48	3.65911
14.49	3.65681
14.5	3.66372
14.51	3.66207
14.52	3.6624
14.53	3.65977
14.54	3.65944
14.55	3.66109
14.56	3.65977
14.57	3.65977
14.58	3.65582
14.59	3.6601
14.6	3.66076
14.61	3.66471
14.62	3.66569
14.63	3.66438
14.64	3.65747
14.65	3.65747
14.66	3.66438
14.67	3.65648
14.68	3.65747
14.69	3.65714
14.7	3.65944
14.71	3.65879
14.72	3.65977
14.73	3.65944
14.74	3.65977
14.75	3.65846
14.76	3.6578
14.77	3.65977
14.78	3.65813
14.79	3.66405
14.8	3.66076
14.81	3.66109
14.82	3.66372
14.83	3.65714
14.84	3.65747
14.85	3.6555
14.86	3.65451
14.87	3.65122
14.88	3.65352
14.89	3.65944
14.9	3.6578
14.91	3.65418
14.92	3.65747
14.93	3.65681
14.94	3.65846
14.95	3.65582
14.96	3.65582
14.97	3.6555
14.98	3.65747
14.99	3.65813
15	3.65221
15.01	3.65254
15.02	3.6578
15.03	3.65286
15.04	3.65286
15.05	3.65681
15.06	3.6578
15.07	3.65747
15.08	3.65484
15.09	3.65352
15.1	3.65582
15.11	3.65418
15.12	3.65221
15.13	3.6555
15.14	3.65681
15.15	3.65813
15.16	3.65418
15.17	3.65681
15.18	3.65418
15.19	3.65385
15.2	3.65221
15.21	3.65385
15.22	3.65879
15.23	3.65615
15.24	3.65484
15.25	3.65352
15.26	3.65582
15.27	3.65517
15.28	3.65977
15.29	3.65648
15.3	3.6578
15.31	3.65418
15.32	3.65122
15.33	3.65023
15.34	3.65089
15.35	3.65451
15.36	3.65681
15.37	3.65122
15.38	3.65188
15.39	3.65714
15.4	3.65582
15.41	3.65615
15.42	3.65451
15.43	3.65615
15.44	3.65615
15.45	3.65319
15.46	3.65319
15.47	3.65056
15.48	3.64957
15.49	3.65286
15.5	3.65056
15.51	3.64892
15.52	3.65188
15.53	3.64892
15.54	3.65286
15.55	3.65484
15.56	3.65681
15.57	3.65319
15.58	3.65155
15.59	3.65155
15.6	3.65451
15.61	3.65089
15.62	3.65221
15.63	3.65451
15.64	3.6499
15.65	3.65221
15.66	3.64793
15.67	3.64925
15.68	3.6555
15.69	3.65056
15.7	3.65286
15.71	3.6476
15.72	3.65122
15.73	3.65122
15.74	3.65615
15.75	3.65122
15.76	3.65023
15.77	3.65221
15.78	3.65385
15.79	3.6499
15.8	3.64957
15.81	3.65155
15.82	3.65418
15.83	3.65254
15.84	3.65155
15.85	3.65319
15.86	3.65352
15.87	3.64793
15.88	3.64925
15.89	3.643
15.9	3.65122
15.91	3.65352
15.92	3.64925
15.93	3.65155
15.94	3.64332
15.95	3.64957
15.96	3.65023
15.97	3.64398
15.98	3.64365
15.99	3.64793
16	3.64694
16.01	3.64859
16.02	3.64859
16.03	3.64628
16.04	3.64661
16.05	3.65056
16.06	3.65286
16.07	3.64628
16.08	3.64957
16.09	3.65221
16.1	3.65254
16.11	3.6476
16.12	3.64727
16.13	3.64826
16.14	3.65056
16.15	3.6453
16.16	3.6499
16.17	3.64859
16.18	3.64332
16.19	3.64957
16.2	3.64859
16.21	3.64826
16.22	3.64793
16.23	3.65582
16.24	3.6499
16.25	3.65352
16.26	3.65155
16.27	3.6499
16.28	3.64892
16.29	3.64464
16.3	3.64892
16.31	3.64628
16.32	3.65089
16.33	3.65155
16.34	3.64793
16.35	3.64957
16.36	3.64628
16.37	3.6499
16.38	3.65122
16.39	3.65089
16.4	3.65056
16.41	3.64957
16.42	3.64464
16.43	3.64859
16.44	3.64859
16.45	3.64793
16.46	3.64398
16.47	3.64036
16.48	3.64234
16.49	3.63773
16.5	3.64464
16.51	3.64464
16.52	3.64201
16.53	3.64003
16.54	3.63675
16.55	3.63675
16.56	3.63576
16.57	3.64003
16.58	3.64596
16.59	3.64365
16.6	3.6351
16.61	3.63839
16.62	3.64398
16.63	3.63675
16.64	3.64003
16.65	3.64135
16.66	3.63971
16.67	3.63773
16.68	3.63806
16.69	3.64201
16.7	3.64201
16.71	3.64234
16.72	3.64003
16.73	3.64003
16.74	3.63543
16.75	3.63576
16.76	3.63839
16.77	3.63806
16.78	3.6374
16.79	3.64497
16.8	3.643
16.81	3.64234
16.82	3.643
16.83	3.64069
16.84	3.64069
16.85	3.64102
16.86	3.64003
16.87	3.63938
16.88	3.6453
16.89	3.63971
16.9	3.6374
16.91	3.63806
16.92	3.64267
16.93	3.64135
16.94	3.64365
16.95	3.64694
16.96	3.6374
16.97	3.64267
16.98	3.64365
16.99	3.64892
17	3.64727
17.01	3.64661
17.02	3.64332
17.03	3.64168
17.04	3.643
17.05	3.6453
17.06	3.64332
17.07	3.64069
17.08	3.643
17.09	3.6453
17.1	3.64201
17.11	3.64826
17.12	3.64497
17.13	3.64497
17.14	3.6453
17.15	3.64102
17.16	3.64168
17.17	3.64431
17.18	3.65023
17.19	3.64596
17.2	3.64201
17.21	3.64003
17.22	3.64267
17.23	3.64267
17.24	3.64267
17.25	3.64102
17.26	3.6453
17.27	3.64201
17.28	3.63872
17.29	3.64168
17.3	3.63938
17.31	3.64234
17.32	3.64036
17.33	3.6351
17.34	3.63905
17.35	3.64267
17.36	3.64135
17.37	3.64431
17.38	3.64135
17.39	3.63477
17.4	3.63543
17.41	3.6374
17.42	3.63806
17.43	3.63872
17.44	3.63839
17.45	3.63675
17.46	3.63378
17.47	3.64003
17.48	3.64168
17.49	3.63905
17.5	3.6374
17.51	3.64036
17.52	3.63642
17.53	3.63872
17.54	3.63905
17.55	3.63707
17.56	3.63576
17.57	3.63642
17.58	3.63411
17.59	3.63609
17.6	3.63872
17.61	3.63773
17.62	3.63411
17.63	3.63675
17.64	3.63378
17.65	3.63346
17.66	3.63444
17.67	3.6328
17.68	3.6374
17.69	3.63806
17.7	3.63839
17.71	3.63411
17.72	3.63378
17.73	3.63675
17.74	3.63477
17.75	3.63609
17.76	3.63082
17.77	3.63609
17.78	3.63707
17.79	3.62885
17.8	3.63115
17.81	3.63247
17.82	3.63543
17.83	3.62918
17.84	3.63115
17.85	3.63346
17.86	3.63346
17.87	3.63082
17.88	3.63247
17.89	3.63115
17.9	3.62852
17.91	3.62721
17.92	3.62852
17.93	3.6305
17.94	3.63148
17.95	3.63247
17.96	3.6305
17.97	3.63346
17.98	3.63411
17.99	3.62984
18	3.62753
18.01	3.63181
18.02	3.63148
18.03	3.63346
18.04	3.6305
18.05	3.62556
18.06	3.63247
18.07	3.63543
18.08	3.63148
18.09	3.62819
18.1	3.63017
18.11	3.62721
18.12	3.63181
18.13	3.63082
18.14	3.63017
18.15	3.63115
18.16	3.62721
18.17	3.63444
18.18	3.63411
18.19	3.63444
18.2	3.63247
18.21	3.63148
18.22	3.62885
18.23	3.63181
18.24	3.63346
18.25	3.63214
18.26	3.62556
18.27	3.63082
18.28	3.63477
18.29	3.62951
18.3	3.63017
18.31	3.62523
18.32	3.63115
18.33	3.63214
18.34	3.63346
18.35	3.63411
18.36	3.62918
18.37	3.62984
18.38	3.62885
18.39	3.62852
18.4	3.62819
18.41	3.62655
18.42	3.62753
18.43	3.63148
18.44	3.62655
18.45	3.62984
18.46	3.63444
18.47	3.63378
18.48	3.63115
18.49	3.62984
18.5	3.63181
18.51	3.62951
18.52	3.6305
18.53	3.62786
18.54	3.62918
18.55	3.62523
18.56	3.62984
18.57	3.62951
18.58	3.62951
18.59	3.62819
18.6	3.62688
18.61	3.6328
18.62	3.62688
18.63	3.63411
18.64	3.63411
18.65	3.62885
18.66	3.63148
18.67	3.63444
18.68	3.63148
18.69	3.62753
18.7	3.6249
18.71	3.62786
18.72	3.63017
18.73	3.6328
18.74	3.63247
18.75	3.62326
18.76	3.62918
18.77	3.6305
18.78	3.62753
18.79	3.62622
18.8	3.6305
18.81	3.62523
18.82	3.62655
18.83	3.63115
18.84	3.62786
18.85	3.62556
18.86	3.62457
18.87	3.62984
18.88	3.63115
18.89	3.62721
18.9	3.6249
18.91	3.62622
18.92	3.6305
18.93	3.63115
18.94	3.62852
18.95	3.62688
18.96	3.62885
18.97	3.62984
18.98	3.62852
18.99	3.63148
19	3.63444
19.01	3.62721
19.02	3.62622
19.03	3.62721
19.04	3.62885
19.05	3.6328
19.06	3.62721
19.07	3.62918
19.08	3.62786
19.09	3.63115
19.1	3.63115
19.11	3.62918
19.12	3.63477
19.13	3.63411
19.14	3.62885
19.15	3.63181
19.16	3.62885
19.17	3.62786
19.18	3.62852
19.19	3.6305
19.2	3.62392
19.21	3.62523
19.22	3.62852
19.23	3.62721
19.24	3.62721
19.25	3.6249
19.26	3.62457
19.27	3.62194
19.28	3.6226
19.29	3.62359
19.3	3.62096
19.31	3.62819
19.32	3.62852
19.33	3.6226
19.34	3.62392
19.35	3.62457
19.36	3.62457
19.37	3.62457
19.38	3.62096
19.39	3.62161
19.4	3.62556
19.41	3.62819
19.42	3.62852
19.43	3.62589
19.44	3.62951
19.45	3.6226
19.46	3.62227
19.47	3.6249
19.48	3.62819
19.49	3.62556
19.5	3.62194
19.51	3.6203
19.52	3.6203
19.53	3.62293
19.54	3.62293
19.55	3.62819
19.56	3.61799
19.57	3.61832
19.58	3.62392
19.59	3.62457
19.6	3.62622
19.61	3.62293
19.62	3.62688
19.63	3.62392
19.64	3.62424
19.65	3.62161
19.66	3.62523
19.67	3.62326
19.68	3.62096
19.69	3.6226
19.7	3.62161
19.71	3.61964
19.72	3.6226
19.73	3.62293
19.74	3.62951
19.75	3.6249
19.76	3.62096
19.77	3.62424
19.78	3.62096
19.79	3.62326
19.8	3.6226
19.81	3.62326
19.82	3.62326
19.83	3.61931
19.84	3.62622
19.85	3.62161
19.86	3.62194
19.87	3.62753
19.88	3.62556
19.89	3.6249
19.9	3.62589
19.91	3.62556
19.92	3.62063
19.93	3.62556
19.94	3.62392
19.95	3.62293
19.96	3.62589
19.97	3.62556
19.98	3.62523
19.99	3.62326
20	3.62753
20.01	3.62194
20.02	3.62457
20.03	3.62523
20.04	3.62688
20.05	3.62293
20.06	3.62589
20.07	3.62556
20.08	3.62359
20.09	3.61997
20.1	3.61931
20.11	3.62227
20.12	3.61734
20.13	3.62063
20.14	3.62227
20.15	3.61931
20.16	3.6203
20.17	3.61799
20.18	3.62424
20.19	3.61865
20.2	3.61602
20.21	3.61503
20.22	3.61832
20.23	3.62227
20.24	3.62128
20.25	3.62161
20.26	3.61997
20.27	3.61865
20.28	3.62161
20.29	3.62424
20.3	3.62194
20.31	3.6226
20.32	3.62096
20.33	3.61997
20.34	3.62161
20.35	3.62227
20.36	3.61668
20.37	3.62359
20.38	3.62655
20.39	3.62128
20.4	3.61931
20.41	3.62326
20.42	3.62128
20.43	3.62589
20.44	3.6203
20.45	3.62194
20.46	3.62392
20.47	3.62523
20.48	3.62161
20.49	3.62359
20.5	3.61964
20.51	3.6203
20.52	3.61635
20.53	3.61799
20.54	3.62227
20.55	3.62128
20.56	3.61734
20.57	3.62227
20.58	3.61503
20.59	3.62293
20.6	3.62161
20.61	3.61503
20.62	3.61832
20.63	3.61931
20.64	3.61569
20.65	3.62128
20.66	3.6203
20.67	3.62359
20.68	3.62326
20.69	3.61799
20.7	3.61799
20.71	3.61898
20.72	3.61372
20.73	3.61273
20.74	3.61964
20.75	3.61997
20.76	3.61832
20.77	3.61569
20.78	3.61832
20.79	3.61668
20.8	3.61536
20.81	3.61306
20.82	3.61339
20.83	3.6124
20.84	3.61799
20.85	3.62128
20.86	3.61767
20.87	3.61339
20.88	3.61372
20.89	3.61569
20.9	3.61109
20.91	3.61142
20.92	3.61076
20.93	3.60911
20.94	3.61405
20.95	3.61635
20.96	3.61602
20.97	3.61569
20.98	3.61536
20.99	3.61536
21	3.61438
21.01	3.62096
21.02	3.61799
21.03	3.62128
21.04	3.61767
21.05	3.6203
21.06	3.61471
21.07	3.61471
21.08	3.61438
21.09	3.61503
21.1	3.61668
21.11	3.61701
21.12	3.61931
21.13	3.61832
21.14	3.61471
21.15	3.61898
21.16	3.62096
21.17	3.62096
21.18	3.62128
21.19	3.61964
21.2	3.61799
21.21	3.61767
21.22	3.61339
21.23	3.61372
21.24	3.61438
21.25	3.61865
21.26	3.61569
21.27	3.61898
21.28	3.61832
21.29	3.61536
21.3	3.61471
21.31	3.61997
21.32	3.61767
21.33	3.61898
21.34	3.61174
21.35	3.61405
21.36	3.61405
21.37	3.61207
21.38	3.61043
21.39	3.6101
21.4	3.61602
21.41	3.6124
21.42	3.61207
21.43	3.61306
21.44	3.61536
21.45	3.6124
21.46	3.60944
21.47	3.61602
21.48	3.61339
21.49	3.60911
21.5	3.60977
21.51	3.61174
21.52	3.61536
21.53	3.61273
21.54	3.60747
21.55	3.61339
21.56	3.61142
21.57	3.61471
21.58	3.6101
21.59	3.61405
21.6	3.61207
21.61	3.61339
21.62	3.60944
21.63	3.61503
21.64	3.61076
21.65	3.61569
21.66	3.6101
21.67	3.61405
21.68	3.61109
21.69	3.61306
21.7	3.60878
21.71	3.61339
21.72	3.61438
21.73	3.61569
21.74	3.61701
21.75	3.61273
21.76	3.61405
21.77	3.60944
21.78	3.60813
21.79	3.60517
21.8	3.61207
21.81	3.61471
21.82	3.6101
21.83	3.6101
21.84	3.60517
21.85	3.60714
21.86	3.60813
21.87	3.60977
21.88	3.60484
21.89	3.60813
21.9	3.61076
21.91	3.6101
21.92	3.60977
21.93	3.61043
21.94	3.60615
21.95	3.61273
21.96	3.6124
21.97	3.61207
21.98	3.61207
21.99	3.60944
22	3.61043
22.01	3.61043
22.02	3.61306
22.03	3.6124
22.04	3.60911
22.05	3.60911
22.06	3.61174
22.07	3.6101
22.08	3.61142
22.09	3.61043
22.1	3.61076
22.11	3.61536
22.12	3.60845
22.13	3.61174
22.14	3.61142
22.15	3.60977
22.16	3.60977
22.17	3.61076
22.18	3.6078
22.19	3.60845
22.2	3.61174
22.21	3.61438
22.22	3.6124
22.23	3.6124
22.24	3.60977
22.25	3.60681
22.26	3.60911
22.27	3.60418
22.28	3.60681
22.29	3.60615
22.3	3.61076
22.31	3.60977
22.32	3.61273
22.33	3.60747
22.34	3.6078
22.35	3.61043
22.36	3.61207
22.37	3.61471
22.38	3.6101
22.39	3.61174
22.4	3.61405
22.41	3.61635
22.42	3.61372
22.43	3.61174
22.44	3.6101
22.45	3.61076
22.46	3.61569
22.47	3.61109
22.48	3.61076
22.49	3.60845
22.5	3.61207
22.51	3.61405
22.52	3.61273
22.53	3.61306
22.54	3.61503
22.55	3.61174
22.56	3.61503
22.57	3.61865
22.58	3.6124
22.59	3.61372
22.6	3.61273
22.61	3.61174
22.62	3.60944
22.63	3.61076
22.64	3.60813
22.65	3.6078
22.66	3.60944
22.67	3.6101
22.68	3.60977
22.69	3.60878
22.7	3.61109
22.71	3.60878
22.72	3.60944
22.73	3.60582
22.74	3.61174
22.75	3.60681
22.76	3.60977
22.77	3.61109
22.78	3.59957
22.79	3.60385
22.8	3.60944
22.81	3.61043
22.82	3.60484
22.83	3.60648
22.84	3.60582
22.85	3.60813
22.86	3.60681
22.87	3.6101
22.88	3.60056
22.89	3.60352
22.9	3.60845
22.91	3.61471
22.92	3.60845
22.93	3.60977
22.94	3.60582
22.95	3.60648
22.96	3.60582
22.97	3.59957
22.98	3.60615
22.99	3.6078
23	3.60286
23.01	3.60681
23.02	3.60681
23.03	3.60451
23.04	3.60615
23.05	3.60517
23.06	3.60319
23.07	3.60813
23.08	3.60977
23.09	3.60451
23.1	3.60582
23.11	3.60352
23.12	3.60056
23.13	3.60253
23.14	3.60352
23.15	3.60352
23.16	3.60155
23.17	3.60681
23.18	3.60253
23.19	3.60319
23.2	3.60615
23.21	3.60549
23.22	3.60253
23.23	3.60385
23.24	3.60253
23.25	3.60056
23.26	3.60582
23.27	3.60451
23.28	3.60451
23.29	3.60089
23.3	3.60385
23.31	3.60056
23.32	3.60582
23.33	3.60188
23.34	3.60648
23.35	3.60484
23.36	3.60451
23.37	3.60878
23.38	3.60155
23.39	3.60188
23.4	3.60385
23.41	3.60484
23.42	3.60253
23.43	3.60845
23.44	3.60484
23.45	3.6078
23.46	3.6101
23.47	3.6078
23.48	3.60845
23.49	3.60319
23.5	3.60714
23.51	3.60747
23.52	3.60681
23.53	3.60122
23.54	3.60056
23.55	3.60451
23.56	3.60517
23.57	3.60813
23.58	3.60517
23.59	3.60845
23.6	3.60582
23.61	3.60944
23.62	3.61273
23.63	3.61043
23.64	3.6101
23.65	3.60714
23.66	3.60517
23.67	3.61306
23.68	3.60648
23.69	3.60582
23.7	3.60878
23.71	3.60681
23.72	3.60845
23.73	3.61207
23.74	3.60681
23.75	3.60615
23.76	3.60517
23.77	3.60517
23.78	3.60418
23.79	3.60582
23.8	3.60714
23.81	3.60944
23.82	3.60648
23.83	3.60615
23.84	3.60615
23.85	3.6101
23.86	3.5999
23.87	3.60648
23.88	3.60681
23.89	3.60615
23.9	3.6078
23.91	3.60845
23.92	3.60352
23.93	3.60286
23.94	3.6022
23.95	3.60418
23.96	3.60319
23.97	3.5999
23.98	3.6022
23.99	3.60188
24	3.60286
24.01	3.60549
24.02	3.60319
24.03	3.60385
24.04	3.60385
24.05	3.60549
24.06	3.60188
24.07	3.60056
24.08	3.60155
24.09	3.60089
24.1	3.59694
24.11	3.60056
24.12	3.59661
24.13	3.60385
24.14	3.59826
24.15	3.60188
24.16	3.60517
24.17	3.5999
24.18	3.60253
24.19	3.6022
24.2	3.60648
24.21	3.60385
24.22	3.60122
24.23	3.59826
24.24	3.59957
24.25	3.5999
24.26	3.59727
24.27	3.59595
24.28	3.59431
24.29	3.5999
24.3	3.59595
24.31	3.59957
24.32	3.59661
24.33	3.59168
24.34	3.59793
24.35	3.59628
24.36	3.59464
24.37	3.60089
24.38	3.59859
24.39	3.60188
24.4	3.60122
24.41	3.60122
24.42	3.59892
24.43	3.59661
24.44	3.59892
24.45	3.59826
24.46	3.60418
24.47	3.60253
24.48	3.60188
24.49	3.60188
24.5	3.60517
24.51	3.59957
24.52	3.59924
24.53	3.60253
24.54	3.60549
24.55	3.60188
24.56	3.60418
24.57	3.60319
24.58	3.60056
24.59	3.60089
24.6	3.59924
24.61	3.60319
24.62	3.5999
24.63	3.60188
24.64	3.60155
24.65	3.59892
24.66	3.59727
24.67	3.59957
24.68	3.60122
24.69	3.60188
24.7	3.60155
24.71	3.59661
24.72	3.60089
24.73	3.59661
24.74	3.59957
24.75	3.60385
24.76	3.59957
24.77	3.59266
24.78	3.59266
24.79	3.59332
24.8	3.59595
24.81	3.59892
24.82	3.60056
24.83	3.59793
24.84	3.59201
24.85	3.59595
24.86	3.59793
24.87	3.60188
24.88	3.59924
24.89	3.5999
24.9	3.59793
24.91	3.59859
24.92	3.60747
24.93	3.5976
24.94	3.60286
24.95	3.59431
24.96	3.60155
24.97	3.59563
24.98	3.59464
24.99	3.59398
25	3.5999
25.01	3.59003
25.02	3.59661
25.03	3.60155
25.04	3.59892
25.05	3.60056
25.06	3.60089
25.07	3.59924
25.08	3.59595
25.09	3.59694
25.1	3.59859
25.11	3.59497
25.12	3.59694
25.13	3.59299
25.14	3.59595
25.15	3.59924
25.16	3.60056
25.17	3.59859
25.18	3.59727
25.19	3.59924
25.2	3.59924
25.21	3.60023
25.22	3.60418
25.23	3.60319
25.24	3.59924
25.25	3.59793
25.26	3.59892
25.27	3.60155
25.28	3.60451
25.29	3.60385
25.3	3.60319
25.31	3.5999
25.32	3.60155
25.33	3.59892
25.34	3.5976
25.35	3.60122
25.36	3.60122
25.37	3.59859
25.38	3.60253
25.39	3.5976
25.4	3.5999
25.41	3.59661
25.42	3.60056
25.43	3.59924
25.44	3.60418
25.45	3.60549
25.46	3.60944
25.47	3.60155
25.48	3.59957
25.49	3.59826
25.5	3.5976
25.51	3.60418
25.52	3.60352
25.53	3.60155
25.54	3.59628
25.55	3.5953
25.56	3.59793
25.57	3.59464
25.58	3.5976
25.59	3.59431
25.6	3.59628
25.61	3.59398
25.62	3.59727
25.63	3.59957
25.64	3.59595
25.65	3.59628
25.66	3.59595
25.67	3.59826
25.68	3.59628
25.69	3.59924
25.7	3.59924
25.71	3.59694
25.72	3.59069
25.73	3.59365
25.74	3.59398
25.75	3.60122
25.76	3.59563
25.77	3.59431
25.78	3.59398
25.79	3.59266
25.8	3.59563
25.81	3.5976
25.82	3.59892
25.83	3.59102
25.84	3.59563
25.85	3.59266
25.86	3.59464
25.87	3.59826
25.88	3.59892
25.89	3.59694
25.9	3.59826
25.91	3.59892
25.92	3.59628
25.93	3.59859
25.94	3.59892
25.95	3.59497
25.96	3.59398
25.97	3.59398
25.98	3.5953
25.99	3.59661
26	3.5976
26.01	3.59628
26.02	3.59661
26.03	3.59595
26.04	3.59859
26.05	3.59266
26.06	3.60023
26.07	3.60385
26.08	3.59793
26.09	3.5999
26.1	3.59859
26.11	3.59793
26.12	3.5976
26.13	3.5953
26.14	3.59892
26.15	3.59924
26.16	3.59595
26.17	3.59694
26.18	3.60056
26.19	3.59957
26.2	3.60023
26.21	3.59497
26.22	3.59826
26.23	3.59826
26.24	3.60155
26.25	3.60023
26.26	3.59563
26.27	3.59793
26.28	3.59431
26.29	3.59464
26.3	3.59694
26.31	3.59892
26.32	3.59563
26.33	3.59201
26.34	3.59628
26.35	3.59892
26.36	3.59727
26.37	3.58839
26.38	3.59497
26.39	3.5953
26.4	3.59431
26.41	3.59332
26.42	3.59924
26.43	3.59924
26.44	3.59332
26.45	3.59201
26.46	3.59332
26.47	3.59563
26.48	3.59135
26.49	3.59299
26.5	3.59201
26.51	3.59266
26.52	3.59332
26.53	3.59102
26.54	3.58773
26.55	3.59234
26.56	3.5897
26.57	3.58872
26.58	3.58839
26.59	3.58872
26.6	3.59135
26.61	3.59299
26.62	3.59234
26.63	3.59201
26.64	3.5976
26.65	3.59431
26.66	3.59365
26.67	3.5953
26.68	3.59266
26.69	3.58938
26.7	3.5897
26.71	3.58839
26.72	3.58872
26.73	3.59003
26.74	3.59168
26.75	3.59398
26.76	3.59464
26.77	3.59628
26.78	3.5953
26.79	3.59661
26.8	3.59332
26.81	3.5976
26.82	3.59628
26.83	3.59398
26.84	3.59299
26.85	3.59727
26.86	3.59201
26.87	3.59464
26.88	3.59563
26.89	3.59957
26.9	3.59694
26.91	3.59497
26.92	3.59234
26.93	3.5953
26.94	3.59102
26.95	3.59299
26.96	3.59332
26.97	3.59431
26.98	3.58872
26.99	3.59299
27	3.59365
27.01	3.59003
27.02	3.59563
27.03	3.59365
27.04	3.59628
27.05	3.59102
27.06	3.59266
27.07	3.58707
27.08	3.59135
27.09	3.59661
27.1	3.59266
27.11	3.59661
27.12	3.59266
27.13	3.59464
27.14	3.5953
27.15	3.59168
27.16	3.59135
27.17	3.59398
27.18	3.59234
27.19	3.59069
27.2	3.59563
27.21	3.5953
27.22	3.59398
27.23	3.59957
27.24	3.59464
27.25	3.58444
27.26	3.58872
27.27	3.59102
27.28	3.58773
27.29	3.58806
27.3	3.58707
27.31	3.58938
27.32	3.58938
27.33	3.58872
27.34	3.5874
27.35	3.59201
27.36	3.59069
27.37	3.59168
27.38	3.58806
27.39	3.59234
27.4	3.58806
27.41	3.59036
27.42	3.59168
27.43	3.5897
27.44	3.5874
27.45	3.5897
27.46	3.5874
27.47	3.58773
27.48	3.58444
27.49	3.58839
27.5	3.58773
27.51	3.58938
27.52	3.5897
27.53	3.59135
27.54	3.59464
27.55	3.59332
27.56	3.59332
27.57	3.59003
27.58	3.59464
27.59	3.58674
27.6	3.58839
27.61	3.59003
27.62	3.59168
27.63	3.58806
27.64	3.58576
27.65	3.58674
27.66	3.59266
27.67	3.59003
27.68	3.59003
27.69	3.58806
27.7	3.58773
27.71	3.59168
27.72	3.59201
27.73	3.59168
27.74	3.58905
27.75	3.59201
27.76	3.58938
27.77	3.59299
27.78	3.59365
27.79	3.59036
27.8	3.59036
27.81	3.58905
27.82	3.59135
27.83	3.59398
27.84	3.59299
27.85	3.59661
27.86	3.59332
27.87	3.59168
27.88	3.59102
27.89	3.58806
27.9	3.59003
27.91	3.59234
27.92	3.59266
27.93	3.59135
27.94	3.59003
27.95	3.5874
27.96	3.59036
27.97	3.59201
27.98	3.58806
27.99	3.58641
28	3.59299
28.01	3.59168
28.02	3.59661
28.03	3.59431
28.04	3.58938
28.05	3.59201
28.06	3.59464
28.07	3.59595
28.08	3.58872
28.09	3.58872
28.1	3.58839
28.11	3.59201
28.12	3.59036
28.13	3.59036
28.14	3.59332
28.15	3.5897
28.16	3.59003
28.17	3.59266
28.18	3.58247
28.19	3.58378
28.2	3.58609
28.21	3.58576
28.22	3.58313
28.23	3.58148
28.24	3.58905
28.25	3.58576
28.26	3.58477
28.27	3.58345
28.28	3.58477
28.29	3.58641
28.3	3.59069
28.31	3.58444
28.32	3.58641
28.33	3.58444
28.34	3.58806
28.35	3.59234
28.36	3.5874
28.37	3.58477
28.38	3.58378
28.39	3.58609
28.4	3.58938
28.41	3.58543
28.42	3.58576
28.43	3.58938
28.44	3.5897
28.45	3.58345
28.46	3.58773
28.47	3.58773
28.48	3.5874
28.49	3.58345
28.5	3.58543
28.51	3.58839
28.52	3.58938
28.53	3.58674
28.54	3.58641
28.55	3.58345
28.56	3.57984
28.57	3.58674
28.58	3.59332
28.59	3.58707
28.6	3.59003
28.61	3.58543
28.62	3.58839
28.63	3.58444
28.64	3.58444
28.65	3.58016
28.66	3.58247
28.67	3.58411
28.68	3.58839
28.69	3.59201
28.7	3.59135
28.71	3.58872
28.72	3.58148
28.73	3.58214
28.74	3.58214
28.75	3.58543
28.76	3.59036
28.77	3.58806
28.78	3.58543
28.79	3.58609
28.8	3.58444
28.81	3.5874
28.82	3.58609
28.83	3.58247
28.84	3.58214
28.85	3.58641
28.86	3.59102
28.87	3.58872
28.88	3.59365
28.89	3.58543
28.9	3.58378
28.91	3.58543
28.92	3.58609
28.93	3.58444
28.94	3.58576
28.95	3.58576
28.96	3.58082
28.97	3.59036
28.98	3.59201
28.99	3.58345
29	3.58839
29.01	3.58707
29.02	3.58938
29.03	3.58839
29.04	3.5897
29.05	3.58938
29.06	3.58641
29.07	3.58641
29.08	3.58872
29.09	3.58609
29.1	3.58016
29.11	3.58247
29.12	3.58609
29.13	3.58773
29.14	3.58444
29.15	3.58609
29.16	3.58707
29.17	3.58938
29.18	3.58345
29.19	3.58247
29.2	3.58641
29.21	3.58707
29.22	3.5874
29.23	3.58082
29.24	3.58641
29.25	3.58444
29.26	3.58247
29.27	3.58839
29.28	3.58247
29.29	3.58378
29.3	3.58247
29.31	3.58181
29.32	3.57819
29.33	3.58082
29.34	3.58313
29.35	3.58543
29.36	3.58247
29.37	3.58082
29.38	3.58411
29.39	3.58115
29.4	3.58543
29.41	3.58082
29.42	3.58641
29.43	3.57984
29.44	3.5851
29.45	3.58016
29.46	3.58148
29.47	3.58313
29.48	3.57918
29.49	3.58115
29.5	3.58444
29.51	3.58378
29.52	3.58115
29.53	3.58313
29.54	3.58214
29.55	3.58378
29.56	3.58082
29.57	3.58247
29.58	3.58115
29.59	3.58049
29.6	3.58148
29.61	3.58214
29.62	3.57852
29.63	3.57984
29.64	3.57655
29.65	3.5828
29.66	3.58214
29.67	3.58444
29.68	3.5851
29.69	3.58181
29.7	3.58049
29.71	3.58115
29.72	3.58247
29.73	3.58115
29.74	3.57786
29.75	3.58082
29.76	3.58378
29.77	3.58641
29.78	3.58247
29.79	3.58148
29.8	3.58609
29.81	3.58905
29.82	3.58707
29.83	3.58477
29.84	3.58543
29.85	3.58411
29.86	3.58477
29.87	3.58444
29.88	3.58609
29.89	3.59069
29.9	3.58411
29.91	3.58576
29.92	3.58707
29.93	3.58576
29.94	3.58674
29.95	3.5874
29.96	3.58444
29.97	3.58641
29.98	3.59135
29.99	3.58641
30	3.58839
