"BIO-KINE ASCII FILE"
"_COMMENT"	"MOS-500 Spectrometer"
"_COMMENT"	"Kinetics measurement"
"_COMMENT"	"Y Unit : Volt,  X Unit : s"
"_COMMENT"	"Excitation wavelength : 380 nm"
"_COMMENT"	"Fentes bandwidth =  1 nm"
"_COMMENT"	"HV= 800V"
"_COMMENT"	"Timebase  1 =  .01 s   3001 pts"
"_SFM"	"SFM-400 /S  Advanced mode"
"_SFM"	"Ratio : S1: 2.5, S2: 0, S3: 0, S4: 1"
"_SFM"	"Content : S1: , S2: , S3: , S4:"
"_SFM"	"Concentration : S1: , S2: , S3: , S4:"
"_SFM"	"Total volume : 209 µl  Flow : 3.5 mL/s"
"_SFM"	"Acquisition start :  10 ms before stop"
"_SFM"	"cuve=FC-15, s1=10 ml , s2=10 ml , s3=10 ml , s4=1.9 ml"
"_UNITX"	"s"
"_UNITY"	"Volt"
"_DELTAX"	0
"_DATA"
1e-300	6.19143
0.01	6.48979
0.02	6.72796
0.03	6.76973
0.04	6.75098
0.05	6.76612
0.06	6.78519
0.07	6.77401
0.08	6.77894
0.09	6.78881
0.1	6.77598
0.11	6.79868
0.12	6.78289
0.13	6.78289
0.14	6.77862
0.15	6.76184
0.16	6.76973
0.17	6.77072
0.18	6.76908
0.19	6.7875
0.2	6.7773
0.21	6.77105
0.22	6.75427
0.23	6.75723
0.24	6.78848
0.25	6.76118
0.26	6.76315
0.27	6.76875
0.28	6.7273
0.29	6.73585
0.3	6.74934
0.31	6.73454
0.32	6.74079
0.33	6.74408
0.34	6.71579
0.35	6.70427
0.36	6.69473
0.37	6.7
0.38	6.71513
0.39	6.70197
0.4	6.72763
0.41	6.71611
0.42	6.68092
0.43	6.70559
0.44	6.71809
0.45	6.72138
0.46	6.7046
0.47	6.69769
0.48	6.68289
0.49	6.68486
0.5	6.67927
0.51	6.65888
0.52	6.66973
0.53	6.67894
0.54	6.66151
0.55	6.64638
0.56	6.65822
0.57	6.66874
0.58	6.64045
0.59	6.62072
0.6	6.63387
0.61	6.6296
0.62	6.61052
0.63	6.60657
0.64	6.61743
0.65	6.5921
0.66	6.60855
0.67	6.59703
0.68	6.61447
0.69	6.61611
0.7	6.59703
0.71	6.5967
0.72	6.56578
0.73	6.58058
0.74	6.55723
0.75	6.56841
0.76	6.57565
0.77	6.53124
0.78	6.56841
0.79	6.54769
0.8	6.53946
0.81	6.54111
0.82	6.53387
0.83	6.5171
0.84	6.50591
0.85	6.52269
0.86	6.51644
0.87	6.50196
0.88	6.51874
0.89	6.50229
0.9	6.51413
0.91	6.49802
0.92	6.47663
0.93	6.47433
0.94	6.4569
0.95	6.46742
0.96	6.46019
0.97	6.46808
0.98	6.47499
0.99	6.47927
1	6.42926
1.01	6.45229
1.02	6.43946
1.03	6.43222
1.04	6.4319
1.05	6.4319
1.06	6.45163
1.07	6.42104
1.08	6.40624
1.09	6.41545
1.1	6.40657
1.11	6.40328
1.12	6.39308
1.13	6.38913
1.14	6.39571
1.15	6.39111
1.16	6.38913
1.17	6.37235
1.18	6.36907
1.19	6.38453
1.2	6.39045
1.21	6.35953
1.22	6.34308
1.23	6.35262
1.24	6.35031
1.25	6.34406
1.26	6.32433
1.27	6.33124
1.28	6.3411
1.29	6.33781
1.3	6.3411
1.31	6.324
1.32	6.32334
1.33	6.32762
1.34	6.299
1.35	6.30064
1.36	6.3013
1.37	6.29209
1.38	6.29439
1.39	6.27893
1.4	6.27531
1.41	6.26479
1.42	6.26413
1.43	6.27992
1.44	6.25623
1.45	6.25656
1.46	6.26051
1.47	6.2513
1.48	6.25294
1.49	6.24834
1.5	6.22959
1.51	6.25821
1.52	6.24011
1.53	6.23288
1.54	6.23123
1.55	6.22202
1.56	6.21051
1.57	6.21446
1.58	6.20163
1.59	6.21018
1.6	6.21972
1.61	6.1911
1.62	6.20656
1.63	6.18485
1.64	6.17366
1.65	6.16906
1.66	6.16215
1.67	6.15097
1.68	6.17695
1.69	6.17169
1.7	6.15919
1.71	6.15689
1.72	6.1388
1.73	6.11741
1.74	6.12958
1.75	6.11807
1.76	6.11939
1.77	6.12827
1.78	6.11314
1.79	6.10754
1.8	6.11741
1.81	6.11544
1.82	6.11643
1.83	6.09504
1.84	6.09735
1.85	6.0605
1.86	6.08452
1.87	6.08847
1.88	6.07004
1.89	6.08748
1.9	6.07169
1.91	6.07991
1.92	6.04537
1.93	6.03616
1.94	6.0559
1.95	6.03748
1.96	6.02629
1.97	6.03517
1.98	6.04537
1.99	6.03748
2	6.02629
2.01	6.03024
2.02	6.03452
2.03	6.00359
2.04	6.01346
2.05	5.99274
2.06	6.01083
2.07	6.02794
2.08	5.99767
2.09	5.99044
2.1	5.96708
2.11	5.98188
2.12	5.98583
2.13	5.97563
2.14	5.96642
2.15	5.95458
2.16	5.94899
2.17	5.94438
2.18	5.9457
2.19	5.95096
2.2	5.92826
2.21	5.9253
2.22	5.93583
2.23	5.92168
2.24	5.9253
2.25	5.90721
2.26	5.92136
2.27	5.92793
2.28	5.89964
2.29	5.90326
2.3	5.8957
2.31	5.89833
2.32	5.88089
2.33	5.88451
2.34	5.8957
2.35	5.85754
2.36	5.87267
2.37	5.87267
2.38	5.87859
2.39	5.85787
2.4	5.84504
2.41	5.8401
2.42	5.82234
2.43	5.823
2.44	5.84241
2.45	5.81773
2.46	5.8299
2.47	5.82793
2.48	5.8355
2.49	5.83221
2.5	5.82629
2.51	5.80359
2.52	5.81477
2.53	5.80326
2.54	5.80359
2.55	5.8003
2.56	5.80852
2.57	5.8049
2.58	5.77497
2.59	5.77892
2.6	5.79043
2.61	5.77957
2.62	5.76411
2.63	5.78385
2.64	5.76707
2.65	5.76576
2.66	5.7549
2.67	5.76444
2.68	5.74931
2.69	5.7378
2.7	5.72431
2.71	5.74503
2.72	5.74734
2.73	5.7276
2.74	5.72201
2.75	5.70819
2.76	5.71872
2.77	5.72168
2.78	5.69668
2.79	5.69766
2.8	5.6947
2.81	5.68253
2.82	5.68286
2.83	5.7049
2.84	5.70589
2.85	5.6901
2.86	5.67464
2.87	5.68253
2.88	5.67497
2.89	5.69306
2.9	5.68155
2.91	5.65951
2.92	5.63944
2.93	5.64437
2.94	5.65983
2.95	5.65523
2.96	5.63977
2.97	5.61707
2.98	5.64043
2.99	5.6197
3	5.62496
3.01	5.63121
3.02	5.63286
3.03	5.62496
3.04	5.61049
3.05	5.60852
3.06	5.60062
3.07	5.59174
3.08	5.58549
3.09	5.58088
3.1	5.57694
3.11	5.59569
3.12	5.58713
3.13	5.57365
3.14	5.57134
3.15	5.57858
3.16	5.55687
3.17	5.58154
3.18	5.56871
3.19	5.56838
3.2	5.55128
3.21	5.54766
3.22	5.53516
3.23	5.53319
3.24	5.54832
3.25	5.52726
3.26	5.5299
3.27	5.53417
3.28	5.5368
3.29	5.51444
3.3	5.50851
3.31	5.52661
3.32	5.5095
3.33	5.4924
3.34	5.52759
3.35	5.50983
3.36	5.48647
3.37	5.46739
3.38	5.4845
3.39	5.49963
3.4	5.49963
3.41	5.47035
3.42	5.47726
3.43	5.46904
3.44	5.45457
3.45	5.47891
3.46	5.45259
3.47	5.45555
3.48	5.44996
3.49	5.43516
3.5	5.44568
3.51	5.44963
3.52	5.43581
3.53	5.43384
3.54	5.4368
3.55	5.43351
3.56	5.43549
3.57	5.41575
3.58	5.40818
3.59	5.40226
3.6	5.40983
3.61	5.40851
3.62	5.41114
3.63	5.39173
3.64	5.39996
3.65	5.37627
3.66	5.40358
3.67	5.39206
3.68	5.37463
3.69	5.38351
3.7	5.3845
3.71	5.38318
3.72	5.372
3.73	5.35917
3.74	5.35785
3.75	5.34568
3.76	5.35292
3.77	5.33482
3.78	5.34765
3.79	5.35456
3.8	5.34404
3.81	5.35061
3.82	5.32594
3.83	5.3289
3.84	5.34009
3.85	5.33943
3.86	5.33844
3.87	5.33022
3.88	5.32232
3.89	5.3016
3.9	5.29042
3.91	5.3016
3.92	5.30061
3.93	5.28713
3.94	5.29634
3.95	5.28417
3.96	5.28614
3.97	5.27199
3.98	5.27693
3.99	5.28943
4	5.26739
4.01	5.26048
4.02	5.26969
4.03	5.2789
4.04	5.27265
4.05	5.24535
4.06	5.26509
4.07	5.25916
4.08	5.24995
4.09	5.25719
4.1	5.23712
4.11	5.23285
4.12	5.22726
4.13	5.23581
4.14	5.22364
4.15	5.22726
4.16	5.22956
4.17	5.22002
4.18	5.20061
4.19	5.21443
4.2	5.2062
4.21	5.21772
4.22	5.2187
4.23	5.20094
4.24	5.18646
4.25	5.2016
4.26	5.19041
4.27	5.19008
4.28	5.1914
4.29	5.16706
4.3	5.15785
4.31	5.16771
4.32	5.1766
4.33	5.1914
4.34	5.15653
4.35	5.16278
4.36	5.15982
4.37	5.15291
4.38	5.14896
4.39	5.15028
4.4	5.15949
4.41	5.14896
4.42	5.15554
4.43	5.14436
4.44	5.15225
4.45	5.1687
4.46	5.13021
4.47	5.12232
4.48	5.10883
4.49	5.1108
4.5	5.12298
4.51	5.12199
4.52	5.11179
4.53	5.11113
4.54	5.10719
4.55	5.10784
4.56	5.13284
4.57	5.12331
4.58	5.09863
4.59	5.096
4.6	5.07988
4.61	5.07955
4.62	5.08284
4.63	5.07396
4.64	5.07133
4.65	5.06936
4.66	5.05883
4.67	5.06278
4.68	5.07001
4.69	5.06837
4.7	5.06047
4.71	5.07462
4.72	5.06442
4.73	5.05093
4.74	5.03909
4.75	5.03712
4.76	5.02889
4.77	5.02955
4.78	5.01475
4.79	5.03317
4.8	5.03811
4.81	5.04699
4.82	5.00981
4.83	5.01179
4.84	5.0256
4.85	5.02495
4.86	5.01738
4.87	5.02199
4.88	5.0131
4.89	5.01475
4.9	4.99106
4.91	4.99699
4.92	4.98449
4.93	4.96672
4.94	4.98514
4.95	4.98514
4.96	5.0006
4.97	5.00389
4.98	4.96277
4.99	4.96442
5	4.96113
5.01	4.97396
5.02	4.98646
5.03	4.95587
5.04	4.95784
5.05	4.9812
5.06	4.96376
5.07	4.93942
5.08	4.93514
5.09	4.93646
5.1	4.93054
5.11	4.94665
5.12	4.94402
5.13	4.9279
5.14	4.91935
5.15	4.91968
5.16	4.91902
5.17	4.94073
5.18	4.92396
5.19	4.91113
5.2	4.921
5.21	4.91047
5.22	4.921
5.23	4.91869
5.24	4.92067
5.25	4.90126
5.26	4.89863
5.27	4.92133
5.28	4.90488
5.29	4.89435
5.3	4.88481
5.31	4.89961
5.32	4.87396
5.33	4.87264
5.34	4.89369
5.35	4.88185
5.36	4.88382
5.37	4.87856
5.38	4.87527
5.39	4.88021
5.4	4.88119
5.41	4.88284
5.42	4.86343
5.43	4.85389
5.44	4.86014
5.45	4.83941
5.46	4.83251
5.47	4.86277
5.48	4.8506
5.49	4.85257
5.5	4.84567
5.51	4.83448
5.52	4.83678
5.53	4.8302
5.54	4.83284
5.55	4.84303
5.56	4.82988
5.57	4.81935
5.58	4.82724
5.59	4.82264
5.6	4.83481
5.61	4.79862
5.62	4.80158
5.63	4.79961
5.64	4.82428
5.65	4.81606
5.66	4.80619
5.67	4.79698
5.68	4.79731
5.69	4.78941
5.7	4.79336
5.71	4.79698
5.72	4.78645
5.73	4.79797
5.74	4.78876
5.75	4.78876
5.76	4.78547
5.77	4.78053
5.78	4.77066
5.79	4.77987
5.8	4.77395
5.81	4.77
5.82	4.75454
5.83	4.76178
5.84	4.76639
5.85	4.7552
5.86	4.76507
5.87	4.76112
5.88	4.75027
5.89	4.74237
5.9	4.7529
5.91	4.76375
5.92	4.73217
5.93	4.73645
5.94	4.75158
5.95	4.7506
5.96	4.75125
5.97	4.74533
5.98	4.70619
5.99	4.72921
6	4.72395
6.01	4.72263
6.02	4.72066
6.03	4.72066
6.04	4.7325
6.05	4.71178
6.06	4.71112
6.07	4.70059
6.08	4.70356
6.09	4.70586
6.1	4.71211
6.11	4.71046
6.12	4.70684
6.13	4.69763
6.14	4.69928
6.15	4.70323
6.16	4.71342
6.17	4.70816
6.18	4.71803
6.19	4.70487
6.2	4.68645
6.21	4.695
6.22	4.68513
6.23	4.67921
6.24	4.69829
6.25	4.68316
6.26	4.65783
6.27	4.67724
6.28	4.6552
6.29	4.65651
6.3	4.66244
6.31	4.65191
6.32	4.65553
6.33	4.63678
6.34	4.65355
6.35	4.65191
6.36	4.63842
6.37	4.65355
6.38	4.64763
6.39	4.64105
6.4	4.64105
6.41	4.64763
6.42	4.64336
6.43	4.6279
6.44	4.64632
6.45	4.65059
6.46	4.61605
6.47	4.61342
6.48	4.61276
6.49	4.60849
6.5	4.63447
6.51	4.6177
6.52	4.62033
6.53	4.60191
6.54	4.61178
6.55	4.62428
6.56	4.60914
6.57	4.61671
6.58	4.6075
6.59	4.59335
6.6	4.58349
6.61	4.63612
6.62	4.59829
6.63	4.59368
6.64	4.58743
6.65	4.56342
6.66	4.58151
6.67	4.58283
6.68	4.56408
6.69	4.56408
6.7	4.58974
6.71	4.56243
6.72	4.57099
6.73	4.57724
6.74	4.58053
6.75	4.58151
6.76	4.55849
6.77	4.56408
6.78	4.57197
6.79	4.57822
6.8	4.57033
6.81	4.56079
6.82	4.55849
6.83	4.56112
6.84	4.56638
6.85	4.55618
6.86	4.55618
6.87	4.55059
6.88	4.54796
6.89	4.55223
6.9	4.53842
6.91	4.54237
6.92	4.54434
6.93	4.54533
6.94	4.5223
6.95	4.51737
6.96	4.53579
6.97	4.52954
6.98	4.53348
6.99	4.5121
7	4.51605
7.01	4.52
7.02	4.53184
7.03	4.5371
7.04	4.54204
7.05	4.53019
7.06	4.50684
7.07	4.51967
7.08	4.51967
7.09	4.51901
7.1	4.5121
7.11	4.49434
7.12	4.49993
7.13	4.52427
7.14	4.50815
7.15	4.50158
7.16	4.48546
7.17	4.48282
7.18	4.49138
7.19	4.48348
7.2	4.48217
7.21	4.48842
7.22	4.50388
7.23	4.49335
7.24	4.46539
7.25	4.47657
7.26	4.48579
7.27	4.48217
7.28	4.47329
7.29	4.47592
7.3	4.45486
7.31	4.46144
7.32	4.47098
7.33	4.47986
7.34	4.46539
7.35	4.45585
7.36	4.4644
7.37	4.45322
7.38	4.46769
7.39	4.47394
7.4	4.44861
7.41	4.43513
7.42	4.45947
7.43	4.45157
7.44	4.44269
7.45	4.47329
7.46	4.44269
7.47	4.44499
7.48	4.43809
7.49	4.43874
7.5	4.43644
7.51	4.44664
7.52	4.43348
7.53	4.44532
7.54	4.4292
7.55	4.42953
7.56	4.42131
7.57	4.4348
7.58	4.44532
7.59	4.44499
7.6	4.44335
7.61	4.4167
7.62	4.41506
7.63	4.40848
7.64	4.41374
7.65	4.4167
7.66	4.41572
7.67	4.39664
7.68	4.39236
7.69	4.40387
7.7	4.41045
7.71	4.3973
7.72	4.39927
7.73	4.40947
7.74	4.38414
7.75	4.38512
7.76	4.40749
7.77	4.38776
7.78	4.38644
7.79	4.36539
7.8	4.37361
7.81	4.39137
7.82	4.39927
7.83	4.38841
7.84	4.37986
7.85	4.39499
7.86	4.38874
7.87	4.38545
7.88	4.3723
7.89	4.3769
7.9	4.40059
7.91	4.39105
7.92	4.38874
7.93	4.37361
7.94	4.36637
7.95	4.37591
7.96	4.38282
7.97	4.37526
7.98	4.36177
7.99	4.36473
8	4.36045
8.01	4.3621
8.02	4.35979
8.03	4.37131
8.04	4.36111
8.05	4.37394
8.06	4.36276
8.07	4.36473
8.08	4.36144
8.09	4.35025
8.1	4.35651
8.11	4.34466
8.12	4.35223
8.13	4.35881
8.14	4.33611
8.15	4.34236
8.16	4.35782
8.17	4.33677
8.18	4.33644
8.19	4.33381
8.2	4.33052
8.21	4.3644
8.22	4.34433
8.23	4.3315
8.24	4.34631
8.25	4.33973
8.26	4.33545
8.27	4.32098
8.28	4.33446
8.29	4.31999
8.3	4.31341
8.31	4.31111
8.32	4.32328
8.33	4.30881
8.34	4.31374
8.35	4.31736
8.36	4.32065
8.37	4.30881
8.38	4.31933
8.39	4.30321
8.4	4.3144
8.41	4.319
8.42	4.30848
8.43	4.29203
8.44	4.2917
8.45	4.32493
8.46	4.32098
8.47	4.31242
8.48	4.28446
8.49	4.2894
8.5	4.27394
8.51	4.28216
8.52	4.30453
8.53	4.30058
8.54	4.28446
8.55	4.30519
8.56	4.30058
8.57	4.29302
8.58	4.27986
8.59	4.28183
8.6	4.29302
8.61	4.27986
8.62	4.28709
8.63	4.28644
8.64	4.28611
8.65	4.27887
8.66	4.269
8.67	4.25058
8.68	4.27229
8.69	4.26275
8.7	4.26867
8.71	4.28874
8.72	4.28019
8.73	4.26703
8.74	4.27032
8.75	4.24565
8.76	4.27591
8.77	4.25617
8.78	4.26012
8.79	4.25124
8.8	4.27229
8.81	4.27492
8.82	4.25255
8.83	4.26341
8.84	4.27492
8.85	4.25354
8.86	4.25848
8.87	4.2644
8.88	4.24926
8.89	4.25025
8.9	4.24598
8.91	4.23578
8.92	4.23347
8.93	4.23249
8.94	4.25815
8.95	4.24598
8.96	4.22624
8.97	4.244
8.98	4.25288
8.99	4.24532
9	4.24269
9.01	4.21867
9.02	4.23479
9.03	4.23479
9.04	4.24367
9.05	4.22821
9.06	4.24795
9.07	4.24959
9.08	4.23808
9.09	4.22032
9.1	4.23808
9.11	4.22953
9.12	4.22953
9.13	4.21966
9.14	4.23315
9.15	4.23611
9.16	4.20782
9.17	4.22295
9.18	4.23611
9.19	4.21801
9.2	4.23315
9.21	4.21538
9.22	4.22953
9.23	4.22788
9.24	4.21407
9.25	4.22394
9.26	4.20255
9.27	4.22032
9.28	4.21209
9.29	4.2292
9.3	4.22229
9.31	4.19663
9.32	4.20749
9.33	4.20091
9.34	4.22426
9.35	4.21472
9.36	4.20091
9.37	4.20946
9.38	4.20486
9.39	4.21209
9.4	4.20551
9.41	4.20683
9.42	4.20157
9.43	4.19926
9.44	4.19499
9.45	4.20288
9.46	4.1736
9.47	4.18939
9.48	4.19729
9.49	4.1963
9.5	4.19532
9.51	4.19959
9.52	4.19499
9.53	4.17788
9.54	4.18216
9.55	4.20551
9.56	4.19038
9.57	4.17624
9.58	4.18775
9.59	4.17821
9.6	4.16735
9.61	4.16801
9.62	4.17854
9.63	4.16176
9.64	4.17854
9.65	4.18314
9.66	4.1736
9.67	4.16801
9.68	4.15847
9.69	4.15683
9.7	4.15781
9.71	4.1667
9.72	4.17393
9.73	4.16341
9.74	4.15058
9.75	4.17821
9.76	4.16078
9.77	4.16505
9.78	4.15716
9.79	4.14827
9.8	4.1588
9.81	4.15814
9.82	4.1713
9.83	4.1565
9.84	4.13939
9.85	4.15518
9.86	4.16012
9.87	4.1463
9.88	4.15387
9.89	4.17393
9.9	4.15814
9.91	4.1463
9.92	4.14696
9.93	4.16176
9.94	4.13841
9.95	4.13545
9.96	4.14992
9.97	4.15156
9.98	4.1463
9.99	4.13906
10	4.14564
10.01	4.15222
10.02	4.13281
10.03	4.12854
10.04	4.14104
10.05	4.13051
10.06	4.11439
10.07	4.12262
10.08	4.10485
10.09	4.12689
10.1	4.13545
10.11	4.13742
10.12	4.13512
10.13	4.14038
10.14	4.14038
10.15	4.1292
10.16	4.13216
10.17	4.13709
10.18	4.12525
10.19	4.11472
10.2	4.14104
10.21	4.14301
10.22	4.12558
10.23	4.12854
10.24	4.12854
10.25	4.12064
10.26	4.10551
10.27	4.11966
10.28	4.119
10.29	4.12327
10.3	4.10979
10.31	4.11308
10.32	4.12459
10.33	4.12426
10.34	4.11933
10.35	4.11012
10.36	4.13051
10.37	4.12459
10.38	4.12788
10.39	4.10222
10.4	4.10518
10.41	4.10485
10.42	4.10781
10.43	4.12492
10.44	4.1088
10.45	4.09498
10.46	4.1088
10.47	4.09696
10.48	4.10617
10.49	4.11538
10.5	4.11242
10.51	4.09268
10.52	4.10025
10.53	4.10485
10.54	4.09893
10.55	4.10814
10.56	4.10683
10.57	4.09531
10.58	4.10288
10.59	4.09137
10.6	4.10025
10.61	4.09137
10.62	4.08972
10.63	4.08742
10.64	4.08248
10.65	4.08281
10.66	4.08577
10.67	4.09202
10.68	4.09433
10.69	4.09762
10.7	4.09794
10.71	4.07755
10.72	4.09038
10.73	4.09465
10.74	4.08018
10.75	4.0815
10.76	4.08742
10.77	4.0759
10.78	4.07558
10.79	4.08413
10.8	4.06669
10.81	4.06867
10.82	4.07525
10.83	4.07985
10.84	4.08544
10.85	4.09465
10.86	4.07919
10.87	4.06406
10.88	4.07261
10.89	4.06669
10.9	4.05353
10.91	4.06077
10.92	4.06932
10.93	4.08215
10.94	4.07886
10.95	4.06604
10.96	4.06702
10.97	4.07919
10.98	4.05057
10.99	4.06275
11	4.06209
11.01	4.06406
11.02	4.05913
11.03	4.05946
11.04	4.06176
11.05	4.06176
11.06	4.07689
11.07	4.07886
11.08	4.07229
11.09	4.06867
11.1	4.06538
11.11	4.0565
11.12	4.07492
11.13	4.06044
11.14	4.0588
11.15	4.05485
11.16	4.05025
11.17	4.04597
11.18	4.04761
11.19	4.05123
11.2	4.05617
11.21	4.03544
11.22	4.03873
11.23	4.06801
11.24	4.05288
11.25	4.03676
11.26	4.04992
11.27	4.05814
11.28	4.03972
11.29	4.05551
11.3	4.04432
11.31	4.04597
11.32	4.04992
11.33	4.03643
11.34	4.04169
11.35	4.05255
11.36	4.04761
11.37	4.04827
11.38	4.03511
11.39	4.03084
11.4	4.02919
11.41	4.04071
11.42	4.04367
11.43	4.03182
11.44	4.02261
11.45	4.03446
11.46	4.03478
11.47	4.04531
11.48	4.04301
11.49	4.03577
11.5	4.02788
11.51	4.04268
11.52	4.04268
11.53	4.04103
11.54	4.03972
11.55	4.03281
11.56	4.03972
11.57	4.02886
11.58	4.00649
11.59	4.02393
11.6	4.04301
11.61	4.01538
11.62	4.02492
11.63	4.02524
11.64	4.00649
11.65	4.01801
11.66	4.0134
11.67	4.02524
11.68	4.01965
11.69	4.02952
11.7	4.02853
11.71	4.02163
11.72	4.0134
11.73	4.0157
11.74	4.02459
11.75	4.01307
11.76	4.01768
11.77	4.01735
11.78	4.01242
11.79	4.01011
11.8	4.01472
11.81	4.02623
11.82	4.00847
11.83	4.00386
11.84	4.00913
11.85	4.01505
11.86	4.01242
11.87	4.01044
11.88	4.00288
11.89	4.0157
11.9	4.01044
11.91	4.01998
11.92	4.00353
11.93	3.99399
11.94	3.99597
11.95	4.00913
11.96	4.00551
11.97	4.01538
11.98	4.0088
11.99	4.01998
12	4.0338
12.01	4.02097
12.02	3.99926
12.03	4.00551
12.04	4.0157
12.05	4.00781
12.06	4.01406
12.07	3.98709
12.08	4.00814
12.09	3.99564
12.1	3.99531
12.11	4.00057
12.12	3.98577
12.13	3.99695
12.14	3.99103
12.15	4.01077
12.16	4.00485
12.17	3.99038
12.18	3.99728
12.19	3.98807
12.2	3.99432
12.21	3.98873
12.22	3.98676
12.23	3.99169
12.24	3.98676
12.25	3.99399
12.26	4.00748
12.27	3.98873
12.28	3.99794
12.29	4.0111
12.3	4.00847
12.31	4.00123
12.32	3.99695
12.33	4.00123
12.34	3.99991
12.35	4.01505
12.36	3.99268
12.37	4.00222
12.38	3.99334
12.39	3.9861
12.4	3.98215
12.41	3.9884
12.42	3.97886
12.43	3.9759
12.44	3.97985
12.45	3.99432
12.46	3.9884
12.47	4.01044
12.48	3.98544
12.49	3.98807
12.5	3.98544
12.51	3.9713
12.52	3.9713
12.53	3.97656
12.54	3.99399
12.55	3.99301
12.56	3.99169
12.57	3.99268
12.58	3.98116
12.59	3.97919
12.6	3.98544
12.61	3.98478
12.62	3.96965
12.63	3.96833
12.64	3.98215
12.65	3.97228
12.66	3.96373
12.67	3.98807
12.68	3.99399
12.69	3.9838
12.7	3.98577
12.71	3.97557
12.72	3.96439
12.73	3.97261
12.74	3.97031
12.75	3.97162
12.76	3.95781
12.77	3.96866
12.78	3.96899
12.79	3.96603
12.8	3.96801
12.81	3.9713
12.82	3.96537
12.83	3.96801
12.84	3.95485
12.85	3.95583
12.86	3.98182
12.87	3.97755
12.88	3.96406
12.89	3.97426
12.9	3.97195
12.91	3.97064
12.92	3.95583
12.93	3.96274
12.94	3.95287
12.95	3.96866
12.96	3.96307
12.97	3.96669
12.98	3.96143
12.99	3.96768
13	3.9759
13.01	3.95945
13.02	3.96768
13.03	3.9509
13.04	3.95781
13.05	3.96735
13.06	3.96274
13.07	3.95419
13.08	3.95847
13.09	3.96143
13.1	3.96208
13.11	3.94366
13.12	3.94268
13.13	3.95715
13.14	3.96866
13.15	3.95287
13.16	3.9588
13.17	3.95123
13.18	3.95419
13.19	3.94597
13.2	3.95024
13.21	3.93083
13.22	3.93774
13.23	3.9486
13.24	3.94695
13.25	3.95353
13.26	3.94136
13.27	3.9611
13.28	3.9509
13.29	3.96241
13.3	3.95518
13.31	3.95024
13.32	3.96011
13.33	3.95353
13.34	3.94728
13.35	3.94202
13.36	3.94136
13.37	3.94498
13.38	3.93116
13.39	3.94136
13.4	3.95978
13.41	3.94301
13.42	3.95057
13.43	3.94728
13.44	3.95123
13.45	3.94432
13.46	3.93412
13.47	3.93643
13.48	3.93511
13.49	3.93149
13.5	3.94103
13.51	3.93412
13.52	3.9361
13.53	3.92754
13.54	3.94235
13.55	3.95452
13.56	3.92689
13.57	3.94662
13.58	3.94268
13.59	3.93478
13.6	3.95254
13.61	3.93445
13.62	3.94498
13.63	3.9407
13.64	3.93182
13.65	3.94629
13.66	3.94333
13.67	3.94268
13.68	3.91077
13.69	3.92787
13.7	3.93774
13.71	3.93314
13.72	3.92491
13.73	3.93248
13.74	3.93018
13.75	3.9305
13.76	3.94498
13.77	3.94498
13.78	3.93116
13.79	3.9259
13.8	3.93281
13.81	3.93708
13.82	3.91603
13.83	3.92393
13.84	3.93412
13.85	3.92393
13.86	3.92261
13.87	3.94333
13.88	3.92261
13.89	3.92031
13.9	3.91636
13.91	3.92722
13.92	3.95649
13.93	3.93281
13.94	3.91866
13.95	3.93412
13.96	3.9259
13.97	3.93873
13.98	3.93149
13.99	3.91274
14	3.93149
14.01	3.93182
14.02	3.9305
14.03	3.92393
14.04	3.93807
14.05	3.91537
14.06	3.91471
14.07	3.94498
14.08	3.93544
14.09	3.92458
14.1	3.91735
14.11	3.90353
14.12	3.91998
14.13	3.91504
14.14	3.92162
14.15	3.92393
14.16	3.91011
14.17	3.91537
14.18	3.94004
14.19	3.93149
14.2	3.92195
14.21	3.91899
14.22	3.92689
14.23	3.9361
14.24	3.9157
14.25	3.93215
14.26	3.92031
14.27	3.93083
14.28	3.918
14.29	3.92096
14.3	3.92327
14.31	3.9157
14.32	3.9236
14.33	3.92228
14.34	3.92425
14.35	3.92031
14.36	3.92623
14.37	3.90649
14.38	3.9259
14.39	3.91636
14.4	3.91274
14.41	3.93544
14.42	3.92129
14.43	3.92623
14.44	3.91932
14.45	3.91241
14.46	3.91471
14.47	3.91208
14.48	3.92162
14.49	3.90649
14.5	3.91011
14.51	3.93807
14.52	3.91274
14.53	3.9111
14.54	3.91011
14.55	3.90452
14.56	3.89728
14.57	3.92952
14.58	3.91735
14.59	3.89629
14.6	3.8861
14.61	3.9157
14.62	3.91044
14.63	3.91011
14.64	3.91077
14.65	3.90057
14.66	3.90616
14.67	3.90945
14.68	3.90616
14.69	3.92294
14.7	3.9055
14.71	3.91044
14.72	3.91044
14.73	3.90649
14.74	3.90156
14.75	3.90912
14.76	3.91077
14.77	3.92787
14.78	3.90879
14.79	3.90287
14.8	3.89728
14.81	3.9157
14.82	3.92458
14.83	3.91307
14.84	3.89991
14.85	3.90287
14.86	3.89169
14.87	3.89761
14.88	3.90189
14.89	3.90287
14.9	3.90287
14.91	3.90814
14.92	3.88741
14.93	3.8986
14.94	3.88807
14.95	3.90945
14.96	3.91603
14.97	3.89892
14.98	3.88642
14.99	3.87458
15	3.89136
15.01	3.89366
15.02	3.90123
15.03	3.90583
15.04	3.89827
15.05	3.89498
15.06	3.88971
15.07	3.89958
15.08	3.89267
15.09	3.88313
15.1	3.89267
15.11	3.90649
15.12	3.90024
15.13	3.89728
15.14	3.88478
15.15	3.90781
15.16	3.88741
15.17	3.87656
15.18	3.87787
15.19	3.88873
15.2	3.89728
15.21	3.89958
15.22	3.87985
15.23	3.88807
15.24	3.90583
15.25	3.88675
15.26	3.90024
15.27	3.89695
15.28	3.89333
15.29	3.8907
15.3	3.88248
15.31	3.89827
15.32	3.893
15.33	3.90024
15.34	3.89925
15.35	3.89432
15.36	3.88807
15.37	3.88083
15.38	3.90221
15.39	3.88017
15.4	3.868
15.41	3.88478
15.42	3.89662
15.43	3.89564
15.44	3.89794
15.45	3.8884
15.46	3.88873
15.47	3.88116
15.48	3.89169
15.49	3.88215
15.5	3.89531
15.51	3.89169
15.52	3.8805
15.53	3.88741
15.54	3.89892
15.55	3.88577
15.56	3.87458
15.57	3.88313
15.58	3.89892
15.59	3.88741
15.6	3.89169
15.61	3.8805
15.62	3.87952
15.63	3.87721
15.64	3.87952
15.65	3.87985
15.66	3.89037
15.67	3.8861
15.68	3.88116
15.69	3.8986
15.7	3.89531
15.71	3.86866
15.72	3.87688
15.73	3.87656
15.74	3.88577
15.75	3.87195
15.76	3.90057
15.77	3.8861
15.78	3.8782
15.79	3.88971
15.8	3.87721
15.81	3.86965
15.82	3.88642
15.83	3.88182
15.84	3.88445
15.85	3.8861
15.86	3.86702
15.87	3.87985
15.88	3.87359
15.89	3.87952
15.9	3.86702
15.91	3.86438
15.92	3.8805
15.93	3.88182
15.94	3.88675
15.95	3.89004
15.96	3.86307
15.97	3.87952
15.98	3.87294
15.99	3.86504
16	3.8805
16.01	3.8759
16.02	3.88116
16.03	3.88182
16.04	3.87853
16.05	3.87195
16.06	3.8782
16.07	3.88511
16.08	3.87623
16.09	3.87031
16.1	3.88017
16.11	3.87491
16.12	3.88346
16.13	3.87425
16.14	3.87096
16.15	3.87063
16.16	3.86504
16.17	3.86932
16.18	3.86109
16.19	3.87721
16.2	3.85912
16.21	3.86537
16.22	3.87458
16.23	3.86406
16.24	3.8657
16.25	3.87195
16.26	3.88544
16.27	3.85682
16.28	3.85945
16.29	3.87557
16.3	3.85912
16.31	3.85484
16.32	3.86406
16.33	3.85517
16.34	3.87096
16.35	3.86504
16.36	3.8509
16.37	3.88281
16.38	3.86899
16.39	3.86208
16.4	3.86142
16.41	3.87129
16.42	3.87294
16.43	3.86537
16.44	3.84794
16.45	3.86702
16.46	3.84859
16.47	3.86077
16.48	3.86011
16.49	3.8532
16.5	3.85221
16.51	3.86965
16.52	3.85912
16.53	3.86471
16.54	3.86077
16.55	3.86077
16.56	3.86011
16.57	3.8532
16.58	3.8509
16.59	3.84728
16.6	3.8634
16.61	3.84399
16.62	3.87491
16.63	3.86767
16.64	3.8578
16.65	3.86109
16.66	3.85846
16.67	3.85846
16.68	3.85846
16.69	3.84662
16.7	3.85353
16.71	3.87195
16.72	3.86208
16.73	3.86998
16.74	3.87754
16.75	3.86504
16.76	3.8532
16.77	3.85879
16.78	3.84991
16.79	3.85813
16.8	3.86373
16.81	3.87294
16.82	3.87195
16.83	3.86734
16.84	3.84958
16.85	3.85287
16.86	3.87623
16.87	3.87656
16.88	3.87063
16.89	3.85978
16.9	3.84761
16.91	3.86504
16.92	3.85353
16.93	3.85386
16.94	3.85879
16.95	3.85715
16.96	3.87228
16.97	3.86307
16.98	3.84892
16.99	3.8453
17	3.87261
17.01	3.85715
17.02	3.85155
17.03	3.87129
17.04	3.84958
17.05	3.84794
17.06	3.8759
17.07	3.86471
17.08	3.85682
17.09	3.85057
17.1	3.85057
17.11	3.87228
17.12	3.87853
17.13	3.86932
17.14	3.84958
17.15	3.84399
17.16	3.85057
17.17	3.84629
17.18	3.85846
17.19	3.86373
17.2	3.8578
17.21	3.86537
17.22	3.85254
17.23	3.85517
17.24	3.86406
17.25	3.85517
17.26	3.83905
17.27	3.85813
17.28	3.86241
17.29	3.85452
17.3	3.84333
17.31	3.86077
17.32	3.84827
17.33	3.82853
17.34	3.84892
17.35	3.85682
17.36	3.83116
17.37	3.85978
17.38	3.84859
17.39	3.84432
17.4	3.84399
17.41	3.85682
17.42	3.85353
17.43	3.85254
17.44	3.83642
17.45	3.84827
17.46	3.85517
17.47	3.84794
17.48	3.8407
17.49	3.83346
17.5	3.83478
17.51	3.84629
17.52	3.84794
17.53	3.84563
17.54	3.84399
17.55	3.85748
17.56	3.84563
17.57	3.84958
17.58	3.83544
17.59	3.84267
17.6	3.85517
17.61	3.85155
17.62	3.85715
17.63	3.84991
17.64	3.84859
17.65	3.85682
17.66	3.85353
17.67	3.84991
17.68	3.83478
17.69	3.84728
17.7	3.84827
17.71	3.8657
17.72	3.85452
17.73	3.83971
17.74	3.85715
17.75	3.84596
17.76	3.8453
17.77	3.8555
17.78	3.84827
17.79	3.83609
17.8	3.85386
17.81	3.83511
17.82	3.84662
17.83	3.84728
17.84	3.85616
17.85	3.85123
17.86	3.85583
17.87	3.84925
17.88	3.84366
17.89	3.83938
17.9	3.83675
17.91	3.8532
17.92	3.83379
17.93	3.85715
17.94	3.83905
17.95	3.84169
17.96	3.84399
17.97	3.84498
17.98	3.84662
17.99	3.84892
18	3.83873
18.01	3.84958
18.02	3.8453
18.03	3.84498
18.04	3.84366
18.05	3.84465
18.06	3.843
18.07	3.84662
18.08	3.83576
18.09	3.84004
18.1	3.82524
18.11	3.83182
18.12	3.84958
18.13	3.84201
18.14	3.83642
18.15	3.83017
18.16	3.82524
18.17	3.82261
18.18	3.84399
18.19	3.83873
18.2	3.82623
18.21	3.82951
18.22	3.8282
18.23	3.8305
18.24	3.83576
18.25	3.84103
18.26	3.84432
18.27	3.84333
18.28	3.84629
18.29	3.85748
18.3	3.84794
18.31	3.85287
18.32	3.83346
18.33	3.84794
18.34	3.82853
18.35	3.83182
18.36	3.84037
18.37	3.83083
18.38	3.83478
18.39	3.81504
18.4	3.83379
18.41	3.8328
18.42	3.83576
18.43	3.84004
18.44	3.83149
18.45	3.83313
18.46	3.84596
18.47	3.84728
18.48	3.85057
18.49	3.85024
18.5	3.83116
18.51	3.81734
18.52	3.8384
18.53	3.84563
18.54	3.84596
18.55	3.82754
18.56	3.84498
18.57	3.81866
18.58	3.82392
18.59	3.83609
18.6	3.83609
18.61	3.83544
18.62	3.83149
18.63	3.84498
18.64	3.82425
18.65	3.8328
18.66	3.84333
18.67	3.83905
18.68	3.83215
18.69	3.843
18.7	3.84201
18.71	3.83182
18.72	3.83675
18.73	3.84399
18.74	3.84037
18.75	3.83544
18.76	3.85682
18.77	3.8384
18.78	3.84958
18.79	3.84432
18.8	3.82919
18.81	3.8407
18.82	3.83873
18.83	3.82787
18.84	3.8453
18.85	3.84136
18.86	3.8305
18.87	3.8328
18.88	3.82524
18.89	3.83182
18.9	3.82951
18.91	3.83807
18.92	3.81965
18.93	3.82326
18.94	3.81866
18.95	3.84366
18.96	3.83215
18.97	3.8157
18.98	3.81636
18.99	3.82721
19	3.82787
19.01	3.84136
19.02	3.83642
19.03	3.83248
19.04	3.83774
19.05	3.81767
19.06	3.83807
19.07	3.82524
19.08	3.84004
19.09	3.82425
19.1	3.81405
19.11	3.82984
19.12	3.83774
19.13	3.83642
19.14	3.81932
19.15	3.83182
19.16	3.82063
19.17	3.82721
19.18	3.81537
19.19	3.81965
19.2	3.83807
19.21	3.83248
19.22	3.81899
19.23	3.82063
19.24	3.82359
19.25	3.81866
19.26	3.83609
19.27	3.83642
19.28	3.82195
19.29	3.81011
19.3	3.81603
19.31	3.80287
19.32	3.82458
19.33	3.82886
19.34	3.82623
19.35	3.81603
19.36	3.8157
19.37	3.81044
19.38	3.81997
19.39	3.8328
19.4	3.81603
19.41	3.82425
19.42	3.80846
19.43	3.81636
19.44	3.82557
19.45	3.82951
19.46	3.82853
19.47	3.82557
19.48	3.82721
19.49	3.83017
19.5	3.81504
19.51	3.81405
19.52	3.82162
19.53	3.81636
19.54	3.80715
19.55	3.81701
19.56	3.80747
19.57	3.83609
19.58	3.84794
19.59	3.82688
19.6	3.81965
19.61	3.81669
19.62	3.82195
19.63	3.818
19.64	3.81833
19.65	3.80747
19.66	3.8259
19.67	3.82063
19.68	3.81603
19.69	3.8157
19.7	3.79629
19.71	3.81109
19.72	3.80386
19.73	3.80813
19.74	3.80978
19.75	3.81537
19.76	3.83017
19.77	3.82458
19.78	3.80978
19.79	3.83215
19.8	3.80649
19.81	3.81044
19.82	3.81899
19.83	3.82063
19.84	3.82886
19.85	3.82524
19.86	3.80813
19.87	3.82458
19.88	3.81734
19.89	3.83905
19.9	3.83675
19.91	3.8203
19.92	3.81044
19.93	3.82294
19.94	3.80353
19.95	3.81603
19.96	3.83905
19.97	3.82228
19.98	3.83248
19.99	3.83807
20	3.82787
20.01	3.82326
20.02	3.83215
20.03	3.83379
20.04	3.84004
20.05	3.8259
20.06	3.82063
20.07	3.80945
20.08	3.81734
20.09	3.82886
20.1	3.82754
20.11	3.82491
20.12	3.79826
20.13	3.82294
20.14	3.81044
20.15	3.80024
20.16	3.79991
20.17	3.81471
20.18	3.82886
20.19	3.81932
20.2	3.81274
20.21	3.80682
20.22	3.8203
20.23	3.82754
20.24	3.81997
20.25	3.80747
20.26	3.8305
20.27	3.8134
20.28	3.81241
20.29	3.80353
20.3	3.81833
20.31	3.81307
20.32	3.81438
20.33	3.81175
20.34	3.82886
20.35	3.80057
20.36	3.80846
20.37	3.81175
20.38	3.83807
20.39	3.80057
20.4	3.80583
20.41	3.818
20.42	3.82984
20.43	3.83412
20.44	3.81965
20.45	3.81208
20.46	3.818
20.47	3.82162
20.48	3.81307
20.49	3.8203
20.5	3.81307
20.51	3.80912
20.52	3.80353
20.53	3.80287
20.54	3.80451
20.55	3.80122
20.56	3.81997
20.57	3.81405
20.58	3.81997
20.59	3.81241
20.6	3.82853
20.61	3.81471
20.62	3.8134
20.63	3.80912
20.64	3.81208
20.65	3.81241
20.66	3.82359
20.67	3.81142
20.68	3.81076
20.69	3.80682
20.7	3.78872
20.71	3.81438
20.72	3.8157
20.73	3.81109
20.74	3.8203
20.75	3.82326
20.76	3.81208
20.77	3.81899
20.78	3.81372
20.79	3.81405
20.8	3.80484
20.81	3.81208
20.82	3.81109
20.83	3.82721
20.84	3.82096
20.85	3.80418
20.86	3.81669
20.87	3.82491
20.88	3.81142
20.89	3.81175
20.9	3.82129
20.91	3.81405
20.92	3.81076
20.93	3.81109
20.94	3.80912
20.95	3.8009
20.96	3.81701
20.97	3.82326
20.98	3.81866
20.99	3.80418
21	3.80616
21.01	3.81899
21.02	3.81471
21.03	3.82787
21.04	3.82326
21.05	3.80616
21.06	3.80353
21.07	3.79497
21.08	3.7953
21.09	3.81372
21.1	3.81701
21.11	3.82491
21.12	3.82688
21.13	3.80254
21.14	3.79991
21.15	3.79728
21.16	3.81044
21.17	3.81997
21.18	3.81076
21.19	3.80057
21.2	3.78412
21.21	3.79432
21.22	3.82392
21.23	3.81142
21.24	3.81932
21.25	3.8203
21.26	3.8134
21.27	3.81044
21.28	3.80484
21.29	3.8134
21.3	3.80978
21.31	3.80978
21.32	3.81109
21.33	3.80155
21.34	3.80945
21.35	3.8134
21.36	3.80978
21.37	3.81767
21.38	3.80682
21.39	3.81142
21.4	3.79432
21.41	3.80122
21.42	3.80583
21.43	3.8009
21.44	3.81669
21.45	3.80846
21.46	3.81833
21.47	3.8157
21.48	3.81471
21.49	3.81109
21.5	3.80155
21.51	3.80353
21.52	3.82162
21.53	3.80155
21.54	3.80583
21.55	3.81142
21.56	3.81307
21.57	3.79991
21.58	3.80188
21.59	3.79761
21.6	3.80945
21.61	3.80813
21.62	3.79793
21.63	3.79892
21.64	3.79892
21.65	3.79826
21.66	3.8203
21.67	3.8078
21.68	3.80583
21.69	3.81405
21.7	3.81175
21.71	3.81734
21.72	3.81866
21.73	3.80254
21.74	3.81241
21.75	3.79826
21.76	3.79399
21.77	3.80155
21.78	3.79333
21.79	3.80616
21.8	3.81636
21.81	3.79695
21.82	3.80122
21.83	3.80978
21.84	3.79859
21.85	3.79662
21.86	3.78938
21.87	3.78675
21.88	3.8055
21.89	3.81241
21.9	3.80912
21.91	3.80254
21.92	3.8055
21.93	3.81471
21.94	3.80386
21.95	3.80155
21.96	3.81307
21.97	3.80747
21.98	3.78642
21.99	3.79761
22	3.81175
22.01	3.8032
22.02	3.77557
22.03	3.80583
22.04	3.79958
22.05	3.80616
22.06	3.80024
22.07	3.79793
22.08	3.8009
22.09	3.79761
22.1	3.80122
22.11	3.79958
22.12	3.81109
22.13	3.79892
22.14	3.8157
22.15	3.79793
22.16	3.78543
22.17	3.79728
22.18	3.80386
22.19	3.78774
22.2	3.79234
22.21	3.80846
22.22	3.79333
22.23	3.80715
22.24	3.80122
22.25	3.79728
22.26	3.79596
22.27	3.79728
22.28	3.80155
22.29	3.80057
22.3	3.79793
22.31	3.81109
22.32	3.81438
22.33	3.79465
22.34	3.80945
22.35	3.7907
22.36	3.80353
22.37	3.80517
22.38	3.80649
22.39	3.80221
22.4	3.81372
22.41	3.79728
22.42	3.7828
22.43	3.79563
22.44	3.79596
22.45	3.80287
22.46	3.78675
22.47	3.7953
22.48	3.80254
22.49	3.81142
22.5	3.79366
22.51	3.79728
22.52	3.79465
22.53	3.79958
22.54	3.78478
22.55	3.80155
22.56	3.80451
22.57	3.80616
22.58	3.80122
22.59	3.80188
22.6	3.79497
22.61	3.78807
22.62	3.78741
22.63	3.79629
22.64	3.80122
22.65	3.8078
22.66	3.79695
22.67	3.77721
22.68	3.79234
22.69	3.79793
22.7	3.79037
22.71	3.79991
22.72	3.81701
22.73	3.80122
22.74	3.79761
22.75	3.7907
22.76	3.81142
22.77	3.81669
22.78	3.80846
22.79	3.80287
22.8	3.80353
22.81	3.79826
22.82	3.8009
22.83	3.79629
22.84	3.79991
22.85	3.78741
22.86	3.81274
22.87	3.80583
22.88	3.80057
22.89	3.80912
22.9	3.78905
22.91	3.79234
22.92	3.79432
22.93	3.78543
22.94	3.8134
22.95	3.78445
22.96	3.78116
22.97	3.77557
22.98	3.81471
22.99	3.78412
23	3.79761
23.01	3.79991
23.02	3.78346
23.03	3.78313
23.04	3.80155
23.05	3.79333
23.06	3.80122
23.07	3.78543
23.08	3.78182
23.09	3.78971
23.1	3.77655
23.11	3.8009
23.12	3.80451
23.13	3.79201
23.14	3.77688
23.15	3.79432
23.16	3.80583
23.17	3.7907
23.18	3.79267
23.19	3.80879
23.2	3.81636
23.21	3.81504
23.22	3.79925
23.23	3.79201
23.24	3.7805
23.25	3.78182
23.26	3.78872
23.27	3.79234
23.28	3.7907
23.29	3.79859
23.3	3.81142
23.31	3.79859
23.32	3.78182
23.33	3.79103
23.34	3.79991
23.35	3.79563
23.36	3.78774
23.37	3.78182
23.38	3.7828
23.39	3.78741
23.4	3.79399
23.41	3.78478
23.42	3.81208
23.43	3.79991
23.44	3.79037
23.45	3.80484
23.46	3.7782
23.47	3.77853
23.48	3.77886
23.49	3.77392
23.5	3.76142
23.51	3.80353
23.52	3.78543
23.53	3.79695
23.54	3.78807
23.55	3.79136
23.56	3.78543
23.57	3.79168
23.58	3.78807
23.59	3.79596
23.6	3.80287
23.61	3.78346
23.62	3.78576
23.63	3.80846
23.64	3.78083
23.65	3.77886
23.66	3.77425
23.67	3.76899
23.68	3.79168
23.69	3.80122
23.7	3.78675
23.71	3.77787
23.72	3.7782
23.73	3.7907
23.74	3.793
23.75	3.79234
23.76	3.78346
23.77	3.77425
23.78	3.78478
23.79	3.78576
23.8	3.78445
23.81	3.78774
23.82	3.79596
23.83	3.79563
23.84	3.78313
23.85	3.78478
23.86	3.80188
23.87	3.8055
23.88	3.79826
23.89	3.8009
23.9	3.78675
23.91	3.7907
23.92	3.78807
23.93	3.77984
23.94	3.77293
23.95	3.78576
23.96	3.78017
23.97	3.78609
23.98	3.77951
23.99	3.80616
24	3.79728
24.01	3.7953
24.02	3.78313
24.03	3.77886
24.04	3.78938
24.05	3.78576
24.06	3.79004
24.07	3.79201
24.08	3.79103
24.09	3.78872
24.1	3.78247
24.11	3.78642
24.12	3.77589
24.13	3.77195
24.14	3.78116
24.15	3.79103
24.16	3.78214
24.17	3.77688
24.18	3.79333
24.19	3.78741
24.2	3.77359
24.21	3.78182
24.22	3.77524
24.23	3.78346
24.24	3.80057
24.25	3.79892
24.26	3.79004
24.27	3.79168
24.28	3.78116
24.29	3.79333
24.3	3.78938
24.31	3.7726
24.32	3.7828
24.33	3.78247
24.34	3.8009
24.35	3.78543
24.36	3.78642
24.37	3.79596
24.38	3.79925
24.39	3.78346
24.4	3.77622
24.41	3.77918
24.42	3.79201
24.43	3.7782
24.44	3.78379
24.45	3.79991
24.46	3.79629
24.47	3.7805
24.48	3.8009
24.49	3.80484
24.5	3.76899
24.51	3.77293
24.52	3.79826
24.53	3.77392
24.54	3.80188
24.55	3.793
24.56	3.79399
24.57	3.79563
24.58	3.78543
24.59	3.76537
24.6	3.78083
24.61	3.79695
24.62	3.79103
24.63	3.77886
24.64	3.78511
24.65	3.79563
24.66	3.78872
24.67	3.79037
24.68	3.78675
24.69	3.78116
24.7	3.78971
24.71	3.77359
24.72	3.79004
24.73	3.77951
24.74	3.78116
24.75	3.78741
24.76	3.77524
24.77	3.79168
24.78	3.76866
24.79	3.77853
24.8	3.7782
24.81	3.7703
24.82	3.77326
24.83	3.77787
24.84	3.78149
24.85	3.79793
24.86	3.77688
24.87	3.77162
24.88	3.79366
24.89	3.8009
24.9	3.77326
24.91	3.7805
24.92	3.79432
24.93	3.78445
24.94	3.79859
24.95	3.78478
24.96	3.7703
24.97	3.79892
24.98	3.793
24.99	3.77688
25	3.77787
25.01	3.77293
25.02	3.77557
25.03	3.78938
25.04	3.77195
25.05	3.7828
25.06	3.78741
25.07	3.78971
25.08	3.77918
25.09	3.79037
25.1	3.78905
25.11	3.77622
25.12	3.77589
25.13	3.77721
25.14	3.77557
25.15	3.79037
25.16	3.79168
25.17	3.77129
25.18	3.78872
25.19	3.79465
25.2	3.7828
25.21	3.79267
25.22	3.77951
25.23	3.78675
25.24	3.78182
25.25	3.78313
25.26	3.78938
25.27	3.76866
25.28	3.75813
25.29	3.76964
25.3	3.80188
25.31	3.79333
25.32	3.76241
25.33	3.77721
25.34	3.78412
25.35	3.78774
25.36	3.78642
25.37	3.78313
25.38	3.79333
25.39	3.7805
25.4	3.78576
25.41	3.78872
25.42	3.768
25.43	3.7782
25.44	3.78938
25.45	3.76734
25.46	3.78379
25.47	3.78642
25.48	3.78511
25.49	3.77195
25.5	3.76274
25.51	3.77293
25.52	3.78247
25.53	3.78478
25.54	3.793
25.55	3.77458
25.56	3.78313
25.57	3.78412
25.58	3.78379
25.59	3.78346
25.6	3.77589
25.61	3.76866
25.62	3.78313
25.63	3.78116
25.64	3.79136
25.65	3.78214
25.66	3.7828
25.67	3.7907
25.68	3.78182
25.69	3.7805
25.7	3.78346
25.71	3.77622
25.72	3.78708
25.73	3.79991
25.74	3.78675
25.75	3.78445
25.76	3.78938
25.77	3.78741
25.78	3.78247
25.79	3.77984
25.8	3.78543
25.81	3.78872
25.82	3.78938
25.83	3.77655
25.84	3.78642
25.85	3.77951
25.86	3.77721
25.87	3.7782
25.88	3.78478
25.89	3.78313
25.9	3.77129
25.91	3.78675
25.92	3.79761
25.93	3.79234
25.94	3.793
25.95	3.79399
25.96	3.77326
25.97	3.78741
25.98	3.79168
25.99	3.77853
26	3.78412
26.01	3.78675
26.02	3.78214
26.03	3.7828
26.04	3.77228
26.05	3.78642
26.06	3.79004
26.07	3.77491
26.08	3.78379
26.09	3.77359
26.1	3.78083
26.11	3.78774
26.12	3.78116
26.13	3.78412
26.14	3.78543
26.15	3.77392
26.16	3.77886
26.17	3.77425
26.18	3.78346
26.19	3.78313
26.2	3.77392
26.21	3.79168
26.22	3.79168
26.23	3.79136
26.24	3.79366
26.25	3.7782
26.26	3.79037
26.27	3.78938
26.28	3.78182
26.29	3.77853
26.3	3.77688
26.31	3.78774
26.32	3.79004
26.33	3.77228
26.34	3.78478
26.35	3.78774
26.36	3.78971
26.37	3.77622
26.38	3.77228
26.39	3.78675
26.4	3.76668
26.41	3.77787
26.42	3.78083
26.43	3.77096
26.44	3.7657
26.45	3.78083
26.46	3.7703
26.47	3.76109
26.48	3.77655
26.49	3.79201
26.5	3.79234
26.51	3.77491
26.52	3.77754
26.53	3.76208
26.54	3.78872
26.55	3.78247
26.56	3.77195
26.57	3.77622
26.58	3.77063
26.59	3.77984
26.6	3.77491
26.61	3.78083
26.62	3.76997
26.63	3.76438
26.64	3.78313
26.65	3.78839
26.66	3.76504
26.67	3.76537
26.68	3.77951
26.69	3.78807
26.7	3.7805
26.71	3.77425
26.72	3.77787
26.73	3.79596
26.74	3.79629
26.75	3.7907
26.76	3.78609
26.77	3.76339
26.78	3.77162
26.79	3.78017
26.8	3.79793
26.81	3.78116
26.82	3.79563
26.83	3.78478
26.84	3.77458
26.85	3.77853
26.86	3.79037
26.87	3.77787
26.88	3.78149
26.89	3.77425
26.9	3.76997
26.91	3.75583
26.92	3.76899
26.93	3.75747
26.94	3.77688
26.95	3.77688
26.96	3.77918
26.97	3.79037
26.98	3.7703
26.99	3.76668
27	3.78083
27.01	3.76866
27.02	3.77129
27.03	3.77524
27.04	3.77129
27.05	3.77491
27.06	3.77195
27.07	3.79037
27.08	3.77195
27.09	3.77557
27.1	3.7805
27.11	3.77557
27.12	3.76142
27.13	3.77458
27.14	3.7805
27.15	3.77228
27.16	3.77787
27.17	3.77129
27.18	3.7805
27.19	3.77228
27.2	3.76208
27.21	3.77096
27.22	3.77458
27.23	3.80517
27.24	3.78412
27.25	3.7703
27.26	3.76833
27.27	3.76701
27.28	3.77688
27.29	3.78017
27.3	3.77326
27.31	3.7578
27.32	3.76866
27.33	3.76142
27.34	3.76109
27.35	3.77721
27.36	3.77228
27.37	3.77359
27.38	3.76537
27.39	3.76899
27.4	3.77096
27.41	3.7805
27.42	3.7782
27.43	3.77096
27.44	3.77754
27.45	3.77162
27.46	3.76964
27.47	3.75945
27.48	3.74892
27.49	3.75254
27.5	3.76833
27.51	3.77392
27.52	3.77195
27.53	3.76668
27.54	3.78708
27.55	3.77425
27.56	3.76833
27.57	3.77392
27.58	3.76964
27.59	3.77293
27.6	3.78839
27.61	3.77688
27.62	3.77622
27.63	3.77557
27.64	3.76997
27.65	3.7726
27.66	3.75056
27.67	3.75813
27.68	3.76767
27.69	3.77096
27.7	3.77195
27.71	3.77886
27.72	3.77589
27.73	3.76866
27.74	3.75813
27.75	3.75451
27.76	3.78511
27.77	3.78478
27.78	3.76405
27.79	3.76866
27.8	3.76438
27.81	3.768
27.82	3.78214
27.83	3.76767
27.84	3.77392
27.85	3.77787
27.86	3.7828
27.87	3.76438
27.88	3.78116
27.89	3.78412
27.9	3.75221
27.91	3.77096
27.92	3.75846
27.93	3.74728
27.94	3.75978
27.95	3.77557
27.96	3.76405
27.97	3.77359
27.98	3.78478
27.99	3.78609
28	3.77129
28.01	3.78017
28.02	3.78313
28.03	3.76734
28.04	3.768
28.05	3.7805
28.06	3.77129
28.07	3.7805
28.08	3.7828
28.09	3.77951
28.1	3.78543
28.11	3.78379
28.12	3.76405
28.13	3.78412
28.14	3.76537
28.15	3.75846
28.16	3.76932
28.17	3.78083
28.18	3.78741
28.19	3.76504
28.2	3.76734
28.21	3.77622
28.22	3.77228
28.23	3.77655
28.24	3.77359
28.25	3.75418
28.26	3.76899
28.27	3.78576
28.28	3.76767
28.29	3.76208
28.3	3.77129
28.31	3.76175
28.32	3.76603
28.33	3.76043
28.34	3.77721
28.35	3.77195
28.36	3.77425
28.37	3.76635
28.38	3.78149
28.39	3.768
28.4	3.76208
28.41	3.77886
28.42	3.76339
28.43	3.77458
28.44	3.77326
28.45	3.76076
28.46	3.76339
28.47	3.77392
28.48	3.76997
28.49	3.77195
28.5	3.768
28.51	3.77392
28.52	3.76142
28.53	3.76635
28.54	3.77951
28.55	3.78313
28.56	3.77063
28.57	3.77622
28.58	3.77787
28.59	3.76537
28.6	3.76175
28.61	3.78872
28.62	3.76668
28.63	3.75649
28.64	3.76142
28.65	3.78839
28.66	3.77754
28.67	3.77195
28.68	3.76997
28.69	3.77886
28.7	3.76175
28.71	3.76438
28.72	3.77951
28.73	3.77688
28.74	3.76964
28.75	3.76734
28.76	3.76471
28.77	3.75978
28.78	3.7532
28.79	3.76274
28.8	3.76274
28.81	3.78905
28.82	3.77326
28.83	3.76241
28.84	3.78346
28.85	3.76142
28.86	3.76339
28.87	3.76504
28.88	3.76208
28.89	3.76767
28.9	3.76043
28.91	3.78675
28.92	3.77754
28.93	3.7578
28.94	3.74662
28.95	3.77688
28.96	3.75385
28.97	3.7407
28.98	3.76372
28.99	3.76307
29	3.77425
29.01	3.77688
29.02	3.78149
29.03	3.7657
29.04	3.76997
29.05	3.76899
29.06	3.77491
29.07	3.76767
29.08	3.75714
29.09	3.77063
29.1	3.75024
29.11	3.75287
29.12	3.76241
29.13	3.75122
29.14	3.76438
29.15	3.768
29.16	3.76997
29.17	3.75583
29.18	3.75254
29.19	3.76307
29.2	3.76734
29.21	3.75188
29.22	3.76603
29.23	3.77557
29.24	3.77425
29.25	3.76504
29.26	3.75879
29.27	3.75945
29.28	3.75484
29.29	3.76339
29.3	3.75813
29.31	3.77557
29.32	3.76701
29.33	3.76964
29.34	3.75714
29.35	3.76504
29.36	3.76668
29.37	3.75747
29.38	3.77096
29.39	3.77129
29.4	3.75945
29.41	3.75616
29.42	3.76537
29.43	3.77721
29.44	3.77162
29.45	3.77293
29.46	3.768
29.47	3.76339
29.48	3.76701
29.49	3.76603
29.5	3.77754
29.51	3.75813
29.52	3.77195
29.53	3.76964
29.54	3.76438
29.55	3.75945
29.56	3.75978
29.57	3.78445
29.58	3.77195
29.59	3.77162
29.6	3.77293
29.61	3.76471
29.62	3.78478
29.63	3.78017
29.64	3.7726
29.65	3.7703
29.66	3.75254
29.67	3.76668
29.68	3.76833
29.69	3.76274
29.7	3.74859
29.71	3.7782
29.72	3.7782
29.73	3.77491
29.74	3.77392
29.75	3.77195
29.76	3.7703
29.77	3.75418
29.78	3.75089
29.79	3.75155
29.8	3.77096
29.81	3.76964
29.82	3.7782
29.83	3.7657
29.84	3.76734
29.85	3.75353
29.86	3.75353
29.87	3.77524
29.88	3.7578
29.89	3.73346
29.9	3.75418
29.91	3.7657
29.92	3.76109
29.93	3.76175
29.94	3.76833
29.95	3.76109
29.96	3.76734
29.97	3.74859
29.98	3.75978
29.99	3.77063
30	3.76208
