"BIO-KINE ASCII FILE"
"_COMMENT"	"MOS-500 Spectrometer"
"_COMMENT"	"Kinetics measurement"
"_COMMENT"	"Y Unit : Volt,  X Unit : s"
"_COMMENT"	"Excitation wavelength : 380 nm"
"_COMMENT"	"Fentes bandwidth =  1 nm"
"_COMMENT"	"HV= 1000V"
"_COMMENT"	"Timebase  1 =  .01 s   5001 pts"
"_SFM"	"SFM-400 /S  Advanced mode"
"_SFM"	"Ratio : S1: 2.5, S2: 0, S3: 0, S4: 1"
"_SFM"	"Content : S1: , S2: , S3: , S4:"
"_SFM"	"Concentration : S1: , S2: , S3: , S4:"
"_SFM"	"Total volume : 209 µl  Flow : 3.5 mL/s"
"_SFM"	"Acquisition start :  10 ms before stop"
"_SFM"	"cuve=FC-15, s1=10 ml , s2=10 ml , s3=10 ml , s4=1.9 ml"
"_UNITX"	"s"
"_UNITY"	"Volt"
"_DELTAX"	0
"_DATA"
1e-300	2.12814
0.01	2.85613
0.02	9.64743
0.03	6.87697
0.04	4.8756
0.05	3.81438
0.06	3.56799
0.07	3.48608
0.08	3.3999
0.09	3.31272
0.1	3.26667
0.11	3.23114
0.12	3.20811
0.13	3.15647
0.14	3.13344
0.15	3.08442
0.16	3.07916
0.17	3.07258
0.18	3.02028
0.19	3.03278
0.2	2.97554
0.21	2.95778
0.22	2.93935
0.23	2.92685
0.24	2.88277
0.25	2.8785
0.26	2.83047
0.27	2.82685
0.28	2.82093
0.29	2.82882
0.3	2.82389
0.31	2.77224
0.32	2.77915
0.33	2.76599
0.34	2.75711
0.35	2.75974
0.36	2.72816
0.37	2.71731
0.38	2.72454
0.39	2.70152
0.4	2.71435
0.41	2.70579
0.42	2.7104
0.43	2.67948
0.44	2.66533
0.45	2.63803
0.46	2.66073
0.47	2.63507
0.48	2.62948
0.49	2.6173
0.5	2.60283
0.51	2.61105
0.52	2.58967
0.53	2.61237
0.54	2.58243
0.55	2.57092
0.56	2.56697
0.57	2.54164
0.58	2.57059
0.59	2.5525
0.6	2.56566
0.61	2.54428
0.62	2.50052
0.63	2.5252
0.64	2.52223
0.65	2.52487
0.66	2.5298
0.67	2.50316
0.68	2.50184
0.69	2.4821
0.7	2.51138
0.71	2.47059
0.72	2.47486
0.73	2.47388
0.74	2.44394
0.75	2.42749
0.76	2.40217
0.77	2.43046
0.78	2.41532
0.79	2.43868
0.8	2.40907
0.81	2.39789
0.82	2.42059
0.83	2.40315
0.84	2.40874
0.85	2.40151
0.86	2.41006
0.87	2.38374
0.88	2.37947
0.89	2.3594
0.9	2.34723
0.91	2.37914
0.92	2.35447
0.93	2.33933
0.94	2.31762
0.95	2.33111
0.96	2.35052
0.97	2.34624
0.98	2.32223
0.99	2.314
1	2.31302
1.01	2.30249
1.02	2.32157
1.03	2.33407
1.04	2.31071
1.05	2.30479
1.06	2.30085
1.07	2.28111
1.08	2.29098
1.09	2.28802
1.1	2.27157
1.11	2.30216
1.12	2.28275
1.13	2.26466
1.14	2.28012
1.15	2.28966
1.16	2.28538
1.17	2.25742
1.18	2.25413
1.19	2.24394
1.2	2.22025
1.21	2.23242
1.22	2.25512
1.23	2.23473
1.24	2.22716
1.25	2.22584
1.26	2.22519
1.27	2.23801
1.28	2.21071
1.29	2.23275
1.3	2.25973
1.31	2.24624
1.32	2.21729
1.33	2.22058
1.34	2.21729
1.35	2.22453
1.36	2.2344
1.37	2.25084
1.38	2.24065
1.39	2.22255
1.4	2.1992
1.41	2.22716
1.42	2.21499
1.43	2.21696
1.44	2.20709
1.45	2.21729
1.46	2.19986
1.47	2.19558
1.48	2.21038
1.49	2.21565
1.5	2.2163
1.51	2.21795
1.52	2.22749
1.53	2.22124
1.54	2.19591
1.55	2.19591
1.56	2.20347
1.57	2.1913
1.58	2.19722
1.59	2.21038
1.6	2.22255
1.61	2.22091
1.62	2.1867
1.63	2.19393
1.64	2.21466
1.65	2.22453
1.66	2.2242
1.67	2.22551
1.68	2.22486
1.69	2.23078
1.7	2.23111
1.71	2.2015
1.72	2.18439
1.73	2.20578
1.74	2.2038
1.75	2.22091
1.76	2.2117
1.77	2.18736
1.78	2.1913
1.79	2.17518
1.8	2.1992
1.81	2.20643
1.82	2.19953
1.83	2.20907
1.84	2.18374
1.85	2.20018
1.86	2.20545
1.87	2.1867
1.88	2.20972
1.89	2.1765
1.9	2.20347
1.91	2.2242
1.92	2.18111
1.93	2.2038
1.94	2.19459
1.95	2.20972
1.96	2.21269
1.97	2.22519
1.98	2.19459
1.99	2.22091
2	2.19328
2.01	2.18275
2.02	2.1969
2.03	2.18834
2.04	2.20347
2.05	2.19525
2.06	2.1969
2.07	2.21532
2.08	2.20084
2.09	2.20676
2.1	2.19492
2.11	2.18045
2.12	2.19097
2.13	2.18999
2.14	2.16268
2.15	2.2094
2.16	2.20051
2.17	2.19196
2.18	2.18374
2.19	2.15479
2.2	2.18045
2.21	2.1617
2.22	2.21104
2.23	2.18834
2.24	2.19887
2.25	2.19591
2.26	2.19722
2.27	2.21367
2.28	2.22913
2.29	2.1742
2.3	2.19657
2.31	2.17716
2.32	2.20347
2.33	2.22124
2.34	2.21137
2.35	2.18045
2.36	2.19459
2.37	2.2265
2.38	2.20545
2.39	2.21696
2.4	2.20709
2.41	2.18439
2.42	2.20084
2.43	2.20315
2.44	2.17387
2.45	2.1913
2.46	2.20808
2.47	2.17847
2.48	2.19986
2.49	2.20709
2.5	2.21597
2.51	2.17255
2.52	2.21071
2.53	2.20216
2.54	2.20479
2.55	2.20183
2.56	2.21301
2.57	2.20413
2.58	2.19854
2.59	2.20282
2.6	2.18407
2.61	2.20413
2.62	2.20446
2.63	2.19492
2.64	2.19032
2.65	2.15709
2.66	2.16367
2.67	2.19064
2.68	2.20282
2.69	2.23769
2.7	2.22025
2.71	2.21269
2.72	2.2094
2.73	2.19295
2.74	2.22519
2.75	2.19591
2.76	2.20479
2.77	2.18209
2.78	2.16301
2.79	2.19459
2.8	2.1765
2.81	2.19295
2.82	2.21959
2.83	2.20545
2.84	2.2015
2.85	2.22387
2.86	2.21038
2.87	2.18143
2.88	2.19393
2.89	2.19525
2.9	2.21499
2.91	2.21532
2.92	2.21499
2.93	2.20643
2.94	2.19788
2.95	2.19097
2.96	2.20249
2.97	2.18736
2.98	2.21137
2.99	2.21466
3	2.1913
3.01	2.16926
3.02	2.20051
3.03	2.21795
3.04	2.18703
3.05	2.2015
3.06	2.18637
3.07	2.19722
3.08	2.19361
3.09	2.21005
3.1	2.21104
3.11	2.20446
3.12	2.20183
3.13	2.19755
3.14	2.19229
3.15	2.1867
3.16	2.17255
3.17	2.22255
3.18	2.21696
3.19	2.20972
3.2	2.17683
3.21	2.16038
3.22	2.16466
3.23	2.20742
3.24	2.21236
3.25	2.18143
3.26	2.21137
3.27	2.20347
3.28	2.21137
3.29	2.18966
3.3	2.21565
3.31	2.21663
3.32	2.23209
3.33	2.21005
3.34	2.25249
3.35	2.19986
3.36	2.18637
3.37	2.18834
3.38	2.19229
3.39	2.17222
3.4	2.19229
3.41	2.18604
3.42	2.19262
3.43	2.17354
3.44	2.19229
3.45	2.2219
3.46	2.18111
3.47	2.2117
3.48	2.2288
3.49	2.21466
3.5	2.16499
3.51	2.20611
3.52	2.21663
3.53	2.20479
3.54	2.21071
3.55	2.20347
3.56	2.18111
3.57	2.2015
3.58	2.1867
3.59	2.19887
3.6	2.1969
3.61	2.20643
3.62	2.20446
3.63	2.18505
3.64	2.18999
3.65	2.20216
3.66	2.18867
3.67	2.20183
3.68	2.16301
3.69	2.16532
3.7	2.18111
3.71	2.1913
3.72	2.18933
3.73	2.20084
3.74	2.19229
3.75	2.20512
3.76	2.1663
3.77	2.16104
3.78	2.18275
3.79	2.16926
3.8	2.19163
3.81	2.17222
3.82	2.21203
3.83	2.18867
3.84	2.22025
3.85	2.19196
3.86	2.19393
3.87	2.20841
3.88	2.20841
3.89	2.20315
3.9	2.20512
3.91	2.20249
3.92	2.18439
3.93	2.18111
3.94	2.19393
3.95	2.18242
3.96	2.19591
3.97	2.20972
3.98	2.20216
3.99	2.20709
4	2.21236
4.01	2.19163
4.02	2.20972
4.03	2.19887
4.04	2.19624
4.05	2.20216
4.06	2.19558
4.07	2.19328
4.08	2.21269
4.09	2.21236
4.1	2.22321
4.11	2.24361
4.12	2.2015
4.13	2.19624
4.14	2.2163
4.15	2.20446
4.16	2.19426
4.17	2.19492
4.18	2.20545
4.19	2.20282
4.2	2.21926
4.21	2.20249
4.22	2.20874
4.23	2.21663
4.24	2.24328
4.25	2.27848
4.26	2.30117
4.27	2.31696
4.28	2.36137
4.29	2.36927
4.3	2.40874
4.31	2.46631
4.32	2.47454
4.33	2.51171
4.34	2.57355
4.35	2.61599
4.36	2.66106
4.37	2.74329
4.38	2.78935
4.39	2.8785
4.4	2.93113
4.41	3.00219
4.42	3.08146
4.43	3.14166
4.44	3.2364
4.45	3.3443
4.46	3.40055
4.47	3.56273
4.48	3.68642
4.49	3.76997
4.5	3.88675
4.51	3.85748
4.52	4.09005
4.53	4.27328
4.54	4.40519
4.55	4.54039
4.56	4.69796
4.57	4.87067
4.58	4.96475
4.59	5.10949
4.6	5.29601
4.61	5.43252
4.62	5.56115
4.63	5.78944
4.64	6.01182
4.65	6.14373
4.66	6.39736
4.67	6.57039
4.68	6.75987
4.69	6.9523
4.7	7.2533
4.71	7.62074
4.72	7.87206
4.73	8.21253
4.74	8.59149
4.75	8.98821
4.76	9.54315
4.77	9.98132
4.78	10.3593
4.79	10.683
4.8	10.7849
4.81	10.7849
4.82	10.7849
4.83	10.7849
4.84	10.7849
4.85	10.7849
4.86	10.7849
4.87	10.7849
4.88	10.7849
4.89	10.7849
4.9	10.7849
4.91	10.7849
4.92	10.7849
4.93	10.7849
4.94	10.7849
4.95	10.7849
4.96	10.7849
4.97	10.7849
4.98	10.7849
4.99	10.7849
5	10.7849
5.01	10.7849
5.02	10.7849
5.03	10.7849
5.04	10.7849
5.05	10.7849
5.06	10.7849
5.07	10.7849
5.08	10.7849
5.09	10.7849
5.1	10.7849
5.11	10.7849
5.12	10.7849
5.13	10.7849
5.14	10.7849
5.15	10.7849
5.16	10.7849
5.17	10.7849
5.18	10.7849
5.19	10.7849
5.2	10.7849
5.21	10.7849
5.22	10.7849
5.23	10.7849
5.24	10.7849
5.25	10.7849
5.26	10.7849
5.27	10.7849
5.28	10.7849
5.29	10.7849
5.3	10.7849
5.31	10.7849
5.32	10.7849
5.33	10.7849
5.34	10.7849
5.35	10.7849
5.36	10.7849
5.37	10.7849
5.38	10.7849
5.39	10.7849
5.4	10.7849
5.41	10.7849
5.42	10.7849
5.43	10.7849
5.44	10.7849
5.45	10.7849
5.46	10.7849
5.47	10.7849
5.48	10.7849
5.49	10.7849
5.5	10.7849
5.51	10.7849
5.52	10.7849
5.53	10.7849
5.54	10.7849
5.55	10.7849
5.56	10.7849
5.57	10.7849
5.58	10.7849
5.59	10.7849
5.6	10.7849
5.61	10.7849
5.62	10.7849
5.63	10.7849
5.64	10.7849
5.65	10.7849
5.66	10.7849
5.67	10.7849
5.68	10.7849
5.69	10.7849
5.7	10.7849
5.71	10.7849
5.72	10.7849
5.73	10.7849
5.74	10.7849
5.75	10.7849
5.76	10.7849
5.77	10.7849
5.78	10.7849
5.79	10.7849
5.8	10.7849
5.81	10.7849
5.82	10.7849
5.83	10.7849
5.84	10.7849
5.85	10.7849
5.86	10.7849
5.87	10.7849
5.88	10.7849
5.89	10.7849
5.9	10.7849
5.91	10.7849
5.92	10.7849
5.93	10.7849
5.94	10.7849
5.95	10.7849
5.96	10.7849
5.97	10.7849
5.98	10.7849
5.99	10.7849
6	10.7849
6.01	10.7849
6.02	10.7849
6.03	10.7849
6.04	10.7849
6.05	10.7849
6.06	9.98888
6.07	8.54741
6.08	7.12698
6.09	6.0661
6.1	5.59207
6.11	5.13219
6.12	4.82659
6.13	4.58579
6.14	4.33249
6.15	4.18939
6.16	4.03774
6.17	3.89892
6.18	3.76307
6.19	3.69497
6.2	3.6226
6.21	3.5295
6.22	3.43871
6.23	3.38246
6.24	3.35088
6.25	3.27259
6.26	3.18838
6.27	3.15778
6.28	3.1114
6.29	3.11107
6.3	3.06107
6.31	3.02817
6.32	2.99824
6.33	2.95383
6.34	2.93376
6.35	2.8729
6.36	2.83277
6.37	2.87521
6.38	2.85317
6.39	2.84067
6.4	2.76369
6.41	2.74658
6.42	2.74165
6.43	2.71237
6.44	2.72422
6.45	2.70448
6.46	2.66402
6.47	2.6354
6.48	2.66171
6.49	2.61928
6.5	2.6354
6.51	2.59066
6.52	2.55447
6.53	2.59099
6.54	2.55579
6.55	2.53704
6.56	2.55579
6.57	2.5548
6.58	2.52783
6.59	2.50941
6.6	2.50348
6.61	2.49559
6.62	2.48408
6.63	2.49033
6.64	2.49263
6.65	2.47585
6.66	2.49263
6.67	2.48539
6.68	2.45907
6.69	2.44065
6.7	2.47388
6.71	2.43309
6.72	2.42124
6.73	2.43736
6.74	2.47322
6.75	2.43407
6.76	2.44493
6.77	2.43967
6.78	2.43967
6.79	2.41927
6.8	2.42717
6.81	2.41368
6.82	2.40973
6.83	2.42026
6.84	2.40052
6.85	2.40184
6.86	2.38934
6.87	2.39822
6.88	2.41401
6.89	2.3798
6.9	2.35973
6.91	2.34822
6.92	2.34854
6.93	2.36269
6.94	2.37881
6.95	2.35183
6.96	2.40677
6.97	2.37815
6.98	2.36236
6.99	2.37124
7	2.36795
7.01	2.34986
7.02	2.33308
7.03	2.35447
7.04	2.34262
7.05	2.33243
7.06	2.35348
7.07	2.32058
7.08	2.3094
7.09	2.33473
7.1	2.33769
7.11	2.31993
7.12	2.29657
7.13	2.31269
7.14	2.30216
7.15	2.31598
7.16	2.32782
7.17	2.30874
7.18	2.31598
7.19	2.31993
7.2	2.33341
7.21	2.3265
7.22	2.30841
7.23	2.31302
7.24	2.29657
7.25	2.27453
7.26	2.29229
7.27	2.29789
7.28	2.30907
7.29	2.30381
7.3	2.32848
7.31	2.31696
7.32	2.28637
7.33	2.2867
7.34	2.27354
7.35	2.2594
7.36	2.27519
7.37	2.29821
7.38	2.26071
7.39	2.24032
7.4	2.26334
7.41	2.25117
7.42	2.2367
7.43	2.25052
7.44	2.26795
7.45	2.26104
7.46	2.24229
7.47	2.24624
7.48	2.24361
7.49	2.24032
7.5	2.23736
7.51	2.264
7.52	2.23275
7.53	2.25282
7.54	2.24295
7.55	2.2413
7.56	2.23341
7.57	2.26104
7.58	2.26006
7.59	2.24394
7.6	2.24986
7.61	2.24098
7.62	2.23505
7.63	2.24953
7.64	2.18966
7.65	2.22716
7.66	2.22716
7.67	2.24788
7.68	2.22091
7.69	2.239
7.7	2.22321
7.71	2.20578
7.72	2.20479
7.73	2.20676
7.74	2.23242
7.75	2.2219
7.76	2.23736
7.77	2.22716
7.78	2.21762
7.79	2.19854
7.8	2.18176
7.81	2.19229
7.82	2.18703
7.83	2.20578
7.84	2.22683
7.85	2.20216
7.86	2.19591
7.87	2.19591
7.88	2.19229
7.89	2.23209
7.9	2.19492
7.91	2.24098
7.92	2.22288
7.93	2.21038
7.94	2.21597
7.95	2.21269
7.96	2.2163
7.97	2.19887
7.98	2.21532
7.99	2.21071
8	2.24262
8.01	2.22815
8.02	2.24098
8.03	2.24887
8.04	2.25545
8.05	2.24262
8.06	2.23834
8.07	2.24032
8.08	2.25874
8.09	2.30446
8.1	2.26762
8.11	2.26631
8.12	2.27848
8.13	2.27354
8.14	2.29723
8.15	2.2821
8.16	2.24821
8.17	2.28111
8.18	2.28078
8.19	2.29821
8.2	2.27815
8.21	2.30117
8.22	2.30085
8.23	2.31795
8.24	2.29789
8.25	2.3242
8.26	2.32058
8.27	2.30216
8.28	2.2969
8.29	2.33341
8.3	2.29328
8.31	2.31565
8.32	2.29756
8.33	2.31104
8.34	2.28835
8.35	2.31203
8.36	2.31696
8.37	2.32453
8.38	2.30611
8.39	2.31499
8.4	2.32223
8.41	2.30874
8.42	2.29986
8.43	2.30183
8.44	2.31927
8.45	2.3242
8.46	2.30578
8.47	2.32453
8.48	2.31006
8.49	2.29624
8.5	2.32618
8.51	2.31631
8.52	2.33637
8.53	2.33604
8.54	2.33572
8.55	2.35249
8.56	2.32354
8.57	2.35578
8.58	2.35611
8.59	2.33835
8.6	2.34887
8.61	2.33407
8.62	2.32947
8.63	2.33933
8.64	2.3617
8.65	2.38341
8.66	2.3446
8.67	2.3367
8.68	2.35578
8.69	2.37519
8.7	2.36697
8.71	2.37256
8.72	2.39394
8.73	2.37782
8.74	2.40019
8.75	2.38374
8.76	2.36664
8.77	2.37552
8.78	2.38934
8.79	2.38243
8.8	2.34789
8.81	2.38407
8.82	2.38374
8.83	2.36532
8.84	2.36335
8.85	2.38341
8.86	2.39295
8.87	2.37815
8.88	2.37124
8.89	2.39888
8.9	2.39591
8.91	2.37716
8.92	2.40545
8.93	2.40381
8.94	2.41598
8.95	2.38539
8.96	2.41138
8.97	2.39493
8.98	2.41006
8.99	2.41598
9	2.40578
9.01	2.41894
9.02	2.40644
9.03	2.39723
9.04	2.40907
9.05	2.38374
9.06	2.40315
9.07	2.39986
9.08	2.39427
9.09	2.4071
9.1	2.41565
9.11	2.41894
9.12	2.40677
9.13	2.4196
9.14	2.40907
9.15	2.41993
9.16	2.41631
9.17	2.40842
9.18	2.39559
9.19	2.40513
9.2	2.3992
9.21	2.40447
9.22	2.41993
9.23	2.42585
9.24	2.39756
9.25	2.38966
9.26	2.39493
9.27	2.42815
9.28	2.42256
9.29	2.43013
9.3	2.41894
9.31	2.40907
9.32	2.39394
9.33	2.40842
9.34	2.41894
9.35	2.40545
9.36	2.40842
9.37	2.40019
9.38	2.43802
9.39	2.46204
9.4	2.41697
9.41	2.41499
9.42	2.42585
9.43	2.40776
9.44	2.42322
9.45	2.39493
9.46	2.39131
9.47	2.37618
9.48	2.37322
9.49	2.3719
9.5	2.40249
9.51	2.34756
9.52	2.40282
9.53	2.37585
9.54	2.37914
9.55	2.38572
9.56	2.41236
9.57	2.40842
9.58	2.38736
9.59	2.38835
9.6	2.38243
9.61	2.38736
9.62	2.43177
9.63	2.37026
9.64	2.36401
9.65	2.37289
9.66	2.39624
9.67	2.43276
9.68	2.39723
9.69	2.41565
9.7	2.38473
9.71	2.41039
9.72	2.37651
9.73	2.38506
9.74	2.37782
9.75	2.38473
9.76	2.37618
9.77	2.36236
9.78	2.35677
9.79	2.3798
9.8	2.37322
9.81	2.35183
9.82	2.3446
9.83	2.36466
9.84	2.33045
9.85	2.33966
9.86	2.3469
9.87	2.34986
9.88	2.34624
9.89	2.37322
9.9	2.38078
9.91	2.35151
9.92	2.33966
9.93	2.33901
9.94	2.36335
9.95	2.35414
9.96	2.33243
9.97	2.36236
9.98	2.36302
9.99	2.34624
10	2.34657
10.01	2.35249
10.02	2.35677
10.03	2.34098
10.04	2.34822
10.05	2.33999
10.06	2.31631
10.07	2.34822
10.08	2.35249
10.09	2.33933
10.1	2.33572
10.11	2.32322
10.12	2.30973
10.13	2.3071
10.14	2.32256
10.15	2.33506
10.16	2.30052
10.17	2.30512
10.18	2.31795
10.19	2.28703
10.2	2.30282
10.21	2.30348
10.22	2.30973
10.23	2.33604
10.24	2.28604
10.25	2.30611
10.26	2.28966
10.27	2.28769
10.28	2.30907
10.29	2.3094
10.3	2.30348
10.31	2.32354
10.32	2.30874
10.33	2.31828
10.34	2.32091
10.35	2.26631
10.36	2.25808
10.37	2.28144
10.38	2.29657
10.39	2.2594
10.4	2.29295
10.41	2.25052
10.42	2.27782
10.43	2.26927
10.44	2.26861
10.45	2.24591
10.46	2.25709
10.47	2.26532
10.48	2.26959
10.49	2.27321
10.5	2.26598
10.51	2.239
10.52	2.25808
10.53	2.28736
10.54	2.28407
10.55	2.25052
10.56	2.24525
10.57	2.26729
10.58	2.23045
10.59	2.25775
10.6	2.22255
10.61	2.22157
10.62	2.23571
10.63	2.25907
10.64	2.25249
10.65	2.23275
10.66	2.21433
10.67	2.2344
10.68	2.2413
10.69	2.23242
10.7	2.23308
10.71	2.23703
10.72	2.21597
10.73	2.22979
10.74	2.2242
10.75	2.23505
10.76	2.26071
10.77	2.24657
10.78	2.23473
10.79	2.2219
10.8	2.21269
10.81	2.19558
10.82	2.19854
10.83	2.22091
10.84	2.21301
10.85	2.20775
10.86	2.19624
10.87	2.20347
10.88	2.21269
10.89	2.18538
10.9	2.19953
10.91	2.20611
10.92	2.20413
10.93	2.19953
10.94	2.19558
10.95	2.17946
10.96	2.18933
10.97	2.22913
10.98	2.2242
10.99	2.22124
11	2.20347
11.01	2.20018
11.02	2.22354
11.03	2.18933
11.04	2.20018
11.05	2.19525
11.06	2.19887
11.07	2.20479
11.08	2.19722
11.09	2.20249
11.1	2.18374
11.11	2.20216
11.12	2.19558
11.13	2.21565
11.14	2.20907
11.15	2.17847
11.16	2.18472
11.17	2.23933
11.18	2.22683
11.19	2.19986
11.2	2.2094
11.21	2.22025
11.22	2.21729
11.23	2.19361
11.24	2.2288
11.25	2.21433
11.26	2.19953
11.27	2.22683
11.28	2.19328
11.29	2.20479
11.3	2.19262
11.31	2.20479
11.32	2.18768
11.33	2.18078
11.34	2.18505
11.35	2.18999
11.36	2.17946
11.37	2.20841
11.38	2.18571
11.39	2.20742
11.4	2.17683
11.41	2.17321
11.42	2.19953
11.43	2.20051
11.44	2.18308
11.45	2.18341
11.46	2.19558
11.47	2.17091
11.48	2.21894
11.49	2.19953
11.5	2.18209
11.51	2.21367
11.52	2.23769
11.53	2.22124
11.54	2.21038
11.55	2.18966
11.56	2.19295
11.57	2.19492
11.58	2.21466
11.59	2.1913
11.6	2.1913
11.61	2.18801
11.62	2.18143
11.63	2.19854
11.64	2.19196
11.65	2.20084
11.66	2.1867
11.67	2.17814
11.68	2.21597
11.69	2.2242
11.7	2.20611
11.71	2.2094
11.72	2.19032
11.73	2.17453
11.74	2.19558
11.75	2.18736
11.76	2.19821
11.77	2.20249
11.78	2.2015
11.79	2.21137
11.8	2.20578
11.81	2.21696
11.82	2.21236
11.83	2.15906
11.84	2.17321
11.85	2.19986
11.86	2.19558
11.87	2.19295
11.88	2.1969
11.89	2.19624
11.9	2.18275
11.91	2.17814
11.92	2.20676
11.93	2.1969
11.94	2.17189
11.95	2.17716
11.96	2.17321
11.97	2.189
11.98	2.1765
11.99	2.18834
12	2.19361
12.01	2.20643
12.02	2.17617
12.03	2.21104
12.04	2.20545
12.05	2.16828
12.06	2.19163
12.07	2.22025
12.08	2.19163
12.09	2.21334
12.1	2.2038
12.11	2.16992
12.12	2.19722
12.13	2.20413
12.14	2.19361
12.15	2.21466
12.16	2.20479
12.17	2.20742
12.18	2.21926
12.19	2.22453
12.2	2.19328
12.21	2.21071
12.22	2.20709
12.23	2.22979
12.24	2.19426
12.25	2.18637
12.26	2.18637
12.27	2.19229
12.28	2.22453
12.29	2.20512
12.3	2.18111
12.31	2.18571
12.32	2.16729
12.33	2.18341
12.34	2.19229
12.35	2.19854
12.36	2.19328
12.37	2.20117
12.38	2.18275
12.39	2.18801
12.4	2.2219
12.41	2.21071
12.42	2.22157
12.43	2.20512
12.44	2.18308
12.45	2.19163
12.46	2.21269
12.47	2.20117
12.48	2.18999
12.49	2.18834
12.5	2.19854
12.51	2.19953
12.52	2.20282
12.53	2.20413
12.54	2.2015
12.55	2.21926
12.56	2.21565
12.57	2.18768
12.58	2.19953
12.59	2.18505
12.6	2.19426
12.61	2.21137
12.62	2.21071
12.63	2.19459
12.64	2.18078
12.65	2.19854
12.66	2.2038
12.67	2.17518
12.68	2.16334
12.69	2.1867
12.7	2.19393
12.71	2.19163
12.72	2.19722
12.73	2.20775
12.74	2.21861
12.75	2.18834
12.76	2.18242
12.77	2.19393
12.78	2.17255
12.79	2.20545
12.8	2.17617
12.81	2.19854
12.82	2.19854
12.83	2.17782
12.84	2.19097
12.85	2.21269
12.86	2.20907
12.87	2.21334
12.88	2.1969
12.89	2.18966
12.9	2.18801
12.91	2.19229
12.92	2.21137
12.93	2.19591
12.94	2.21696
12.95	2.20446
12.96	2.22321
12.97	2.19986
12.98	2.18834
12.99	2.22387
13	2.21334
13.01	2.20676
13.02	2.21466
13.03	2.20216
13.04	2.19163
13.05	2.19558
13.06	2.20347
13.07	2.19097
13.08	2.20512
13.09	2.21038
13.1	2.21499
13.11	2.17387
13.12	2.17584
13.13	2.17716
13.14	2.18637
13.15	2.18637
13.16	2.20282
13.17	2.2163
13.18	2.20775
13.19	2.18176
13.2	2.21861
13.21	2.19262
13.22	2.18933
13.23	2.1992
13.24	2.20643
13.25	2.16071
13.26	2.17782
13.27	2.1992
13.28	2.1992
13.29	2.20643
13.3	2.19821
13.31	2.2038
13.32	2.19788
13.33	2.18111
13.34	2.1913
13.35	2.19393
13.36	2.1992
13.37	2.19657
13.38	2.19525
13.39	2.21696
13.4	2.22453
13.41	2.19788
13.42	2.20084
13.43	2.21433
13.44	2.18242
13.45	2.17749
13.46	2.19426
13.47	2.19361
13.48	2.19459
13.49	2.20216
13.5	2.18538
13.51	2.17025
13.52	2.18867
13.53	2.19558
13.54	2.2117
13.55	2.20808
13.56	2.2094
13.57	2.18275
13.58	2.22025
13.59	2.19262
13.6	2.18505
13.61	2.19591
13.62	2.1969
13.63	2.19887
13.64	2.18999
13.65	2.18538
13.66	2.18736
13.67	2.2219
13.68	2.20183
13.69	2.1788
13.7	2.14525
13.71	2.19722
13.72	2.21894
13.73	2.18736
13.74	2.1867
13.75	2.17847
13.76	2.19163
13.77	2.19887
13.78	2.18341
13.79	2.1867
13.8	2.20216
13.81	2.22815
13.82	2.23078
13.83	2.1969
13.84	2.19097
13.85	2.1992
13.86	2.20545
13.87	2.22716
13.88	2.189
13.89	2.21762
13.9	2.22519
13.91	2.18999
13.92	2.18867
13.93	2.18834
13.94	2.21038
13.95	2.2117
13.96	2.20545
13.97	2.18078
13.98	2.1992
13.99	2.23275
14	2.21071
14.01	2.19953
14.02	2.20545
14.03	2.20742
14.04	2.18604
14.05	2.19229
14.06	2.19229
14.07	2.19887
14.08	2.18703
14.09	2.19492
14.1	2.19295
14.11	2.19624
14.12	2.19821
14.13	2.18472
14.14	2.18999
14.15	2.20216
14.16	2.18768
14.17	2.21005
14.18	2.18604
14.19	2.19032
14.2	2.20775
14.21	2.21795
14.22	2.22486
14.23	2.19262
14.24	2.19393
14.25	2.22782
14.26	2.21301
14.27	2.17683
14.28	2.16532
14.29	2.18111
14.3	2.17321
14.31	2.18472
14.32	2.17913
14.33	2.18801
14.34	2.19328
14.35	2.1992
14.36	2.21597
14.37	2.22255
14.38	2.21466
14.39	2.20643
14.4	2.19492
14.41	2.16071
14.42	2.17814
14.43	2.20315
14.44	2.21071
14.45	2.19262
14.46	2.19262
14.47	2.19722
14.48	2.16992
14.49	2.20183
14.5	2.20018
14.51	2.18209
14.52	2.18374
14.53	2.18966
14.54	2.18736
14.55	2.19262
14.56	2.22091
14.57	2.20676
14.58	2.18439
14.59	2.20084
14.6	2.18703
14.61	2.19032
14.62	2.20084
14.63	2.18571
14.64	2.19361
14.65	2.22157
14.66	2.19854
14.67	2.19196
14.68	2.20545
14.69	2.18407
14.7	2.19328
14.71	2.19032
14.72	2.20841
14.73	2.19262
14.74	2.19262
14.75	2.19986
14.76	2.18801
14.77	2.19657
14.78	2.17124
14.79	2.189
14.8	2.20709
14.81	2.17979
14.82	2.19887
14.83	2.19492
14.84	2.17321
14.85	2.20117
14.86	2.20117
14.87	2.21663
14.88	2.20578
14.89	2.17025
14.9	2.19558
14.91	2.19887
14.92	2.18604
14.93	2.19722
14.94	2.22321
14.95	2.19657
14.96	2.19624
14.97	2.18966
14.98	2.20742
14.99	2.19558
15	2.189
15.01	2.20874
15.02	2.21301
15.03	2.20545
15.04	2.22716
15.05	2.20643
15.06	2.18867
15.07	2.21038
15.08	2.18472
15.09	2.22255
15.1	2.18801
15.11	2.20249
15.12	2.19361
15.13	2.1992
15.14	2.19624
15.15	2.19196
15.16	2.18571
15.17	2.22387
15.18	2.21367
15.19	2.20347
15.2	2.23275
15.21	2.21828
15.22	2.17782
15.23	2.19064
15.24	2.19295
15.25	2.20611
15.26	2.21597
15.27	2.22321
15.28	2.22091
15.29	2.17946
15.3	2.17814
15.31	2.16564
15.32	2.1913
15.33	2.19361
15.34	2.18176
15.35	2.20249
15.36	2.21203
15.37	2.18933
15.38	2.17814
15.39	2.18637
15.4	2.21565
15.41	2.22683
15.42	2.21367
15.43	2.19064
15.44	2.21433
15.45	2.20347
15.46	2.18834
15.47	2.17124
15.48	2.19788
15.49	2.1913
15.5	2.18374
15.51	2.20282
15.52	2.22354
15.53	2.17847
15.54	2.19492
15.55	2.2242
15.56	2.21433
15.57	2.18407
15.58	2.20216
15.59	2.2094
15.6	2.19788
15.61	2.22946
15.62	2.20216
15.63	2.18374
15.64	2.19986
15.65	2.20512
15.66	2.20018
15.67	2.1969
15.68	2.19064
15.69	2.18407
15.7	2.19328
15.71	2.20841
15.72	2.19229
15.73	2.2094
15.74	2.20808
15.75	2.19525
15.76	2.19986
15.77	2.17979
15.78	2.18308
15.79	2.19788
15.8	2.20183
15.81	2.21038
15.82	2.22551
15.83	2.1913
15.84	2.21005
15.85	2.20315
15.86	2.18604
15.87	2.2219
15.88	2.19459
15.89	2.16367
15.9	2.20874
15.91	2.20282
15.92	2.18111
15.93	2.1913
15.94	2.18242
15.95	2.18933
15.96	2.19196
15.97	2.20578
15.98	2.21433
15.99	2.1913
16	2.19953
16.01	2.18275
16.02	2.19788
16.03	2.19426
16.04	2.19854
16.05	2.20545
16.06	2.2038
16.07	2.23736
16.08	2.20512
16.09	2.21301
16.1	2.18472
16.11	2.19097
16.12	2.21795
16.13	2.17518
16.14	2.19393
16.15	2.20084
16.16	2.18933
16.17	2.17189
16.18	2.20117
16.19	2.17814
16.2	2.20742
16.21	2.19591
16.22	2.18308
16.23	2.19624
16.24	2.21729
16.25	2.16334
16.26	2.18538
16.27	2.19032
16.28	2.17847
16.29	2.19361
16.3	2.18637
16.31	2.20018
16.32	2.20479
16.33	2.17189
16.34	2.20446
16.35	2.20413
16.36	2.19722
16.37	2.21203
16.38	2.19953
16.39	2.18768
16.4	2.20841
16.41	2.22913
16.42	2.21137
16.43	2.22617
16.44	2.20676
16.45	2.17157
16.46	2.18341
16.47	2.19953
16.48	2.16005
16.49	2.21269
16.5	2.19295
16.51	2.18736
16.52	2.21071
16.53	2.2163
16.54	2.21367
16.55	2.22124
16.56	2.19361
16.57	2.19953
16.58	2.19624
16.59	2.20643
16.6	2.1969
16.61	2.22354
16.62	2.20578
16.63	2.20347
16.64	2.2094
16.65	2.20545
16.66	2.22157
16.67	2.21926
16.68	2.19097
16.69	2.17847
16.7	2.2015
16.71	2.20611
16.72	2.20578
16.73	2.2094
16.74	2.20841
16.75	2.20347
16.76	2.2219
16.77	2.19525
16.78	2.20874
16.79	2.20676
16.8	2.19624
16.81	2.17617
16.82	2.21137
16.83	2.20051
16.84	2.20676
16.85	2.2117
16.86	2.20347
16.87	2.24723
16.88	2.20479
16.89	2.18571
16.9	2.20479
16.91	2.18867
16.92	2.1992
16.93	2.19591
16.94	2.19755
16.95	2.20709
16.96	2.20183
16.97	2.20479
16.98	2.20315
16.99	2.20545
17	2.2117
17.01	2.2242
17.02	2.21367
17.03	2.20907
17.04	2.19426
17.05	2.18308
17.06	2.20643
17.07	2.22157
17.08	2.21005
17.09	2.20742
17.1	2.2094
17.11	2.19755
17.12	2.20479
17.13	2.19295
17.14	2.19163
17.15	2.18933
17.16	2.18078
17.17	2.19492
17.18	2.18999
17.19	2.20578
17.2	2.18736
17.21	2.17913
17.22	2.19032
17.23	2.18472
17.24	2.17913
17.25	2.20643
17.26	2.20446
17.27	2.18966
17.28	2.2344
17.29	2.21795
17.3	2.20545
17.31	2.19821
17.32	2.18374
17.33	2.19525
17.34	2.1969
17.35	2.20972
17.36	2.21236
17.37	2.20643
17.38	2.189
17.39	2.20183
17.4	2.19953
17.41	2.19163
17.42	2.19722
17.43	2.20841
17.44	2.20611
17.45	2.18275
17.46	2.19591
17.47	2.20578
17.48	2.21203
17.49	2.1913
17.5	2.18834
17.51	2.1867
17.52	2.18078
17.53	2.20709
17.54	2.21565
17.55	2.22255
17.56	2.19722
17.57	2.17946
17.58	2.1867
17.59	2.20972
17.6	2.20676
17.61	2.19492
17.62	2.19393
17.63	2.18801
17.64	2.18637
17.65	2.22058
17.66	2.20216
17.67	2.19032
17.68	2.23012
17.69	2.21038
17.7	2.20117
17.71	2.2117
17.72	2.19624
17.73	2.214
17.74	2.2015
17.75	2.19064
17.76	2.22749
17.77	2.22848
17.78	2.1969
17.79	2.21729
17.8	2.20084
17.81	2.22025
17.82	2.18703
17.83	2.1867
17.84	2.22519
17.85	2.21071
17.86	2.19591
17.87	2.22848
17.88	2.2038
17.89	2.18111
17.9	2.23538
17.91	2.18341
17.92	2.21137
17.93	2.22288
17.94	2.19295
17.95	2.18966
17.96	2.21367
17.97	2.19196
17.98	2.22453
17.99	2.1992
18	2.22453
18.01	2.19986
18.02	2.1867
18.03	2.17124
18.04	2.2117
18.05	2.1969
18.06	2.19525
18.07	2.18933
18.08	2.14295
18.09	2.18111
18.1	2.20183
18.11	2.19393
18.12	2.16367
18.13	2.18242
18.14	2.18209
18.15	2.18209
18.16	2.19591
18.17	2.18045
18.18	2.19558
18.19	2.21005
18.2	2.19492
18.21	2.1969
18.22	2.19196
18.23	2.20643
18.24	2.19657
18.25	2.17453
18.26	2.17913
18.27	2.20117
18.28	2.19558
18.29	2.22551
18.3	2.22124
18.31	2.21663
18.32	2.20611
18.33	2.22157
18.34	2.16433
18.35	2.19986
18.36	2.18143
18.37	2.1686
18.38	2.19986
18.39	2.21762
18.4	2.20347
18.41	2.21071
18.42	2.19295
18.43	2.21597
18.44	2.21038
18.45	2.18604
18.46	2.2117
18.47	2.19196
18.48	2.21663
18.49	2.214
18.5	2.2219
18.51	2.19887
18.52	2.20018
18.53	2.21367
18.54	2.214
18.55	2.20216
18.56	2.19887
18.57	2.19986
18.58	2.22157
18.59	2.18571
18.6	2.20611
18.61	2.20117
18.62	2.19097
18.63	2.20413
18.64	2.19755
18.65	2.2015
18.66	2.22354
18.67	2.2219
18.68	2.20676
18.69	2.18867
18.7	2.17814
18.71	2.18736
18.72	2.21038
18.73	2.21071
18.74	2.18801
18.75	2.20578
18.76	2.22815
18.77	2.189
18.78	2.20972
18.79	2.18407
18.8	2.18966
18.81	2.19657
18.82	2.19657
18.83	2.21269
18.84	2.24098
18.85	2.22288
18.86	2.17058
18.87	2.2094
18.88	2.22354
18.89	2.18999
18.9	2.19064
18.91	2.20808
18.92	2.19558
18.93	2.20545
18.94	2.21597
18.95	2.21269
18.96	2.19986
18.97	2.18703
18.98	2.20643
18.99	2.18604
19	2.21137
19.01	2.17157
19.02	2.19459
19.03	2.17782
19.04	2.17683
19.05	2.18045
19.06	2.20051
19.07	2.22157
19.08	2.20742
19.09	2.21597
19.1	2.21236
19.11	2.2038
19.12	2.22222
19.13	2.18736
19.14	2.19295
19.15	2.21499
19.16	2.19953
19.17	2.20611
19.18	2.18012
19.19	2.19393
19.2	2.18571
19.21	2.17847
19.22	2.21236
19.23	2.18176
19.24	2.20512
19.25	2.22058
19.26	2.20183
19.27	2.18439
19.28	2.15906
19.29	2.18867
19.3	2.19163
19.31	2.18571
19.32	2.21926
19.33	2.2094
19.34	2.21795
19.35	2.21236
19.36	2.18209
19.37	2.20742
19.38	2.19986
19.39	2.21005
19.4	2.21005
19.41	2.20018
19.42	2.21236
19.43	2.21795
19.44	2.20084
19.45	2.19854
19.46	2.20676
19.47	2.20183
19.48	2.19361
19.49	2.18933
19.5	2.1969
19.51	2.17518
19.52	2.2038
19.53	2.17453
19.54	2.19986
19.55	2.19558
19.56	2.17749
19.57	2.20018
19.58	2.22222
19.59	2.21499
19.6	2.20841
19.61	2.22519
19.62	2.18966
19.63	2.18801
19.64	2.19196
19.65	2.19624
19.66	2.20972
19.67	2.22157
19.68	2.20183
19.69	2.21532
19.7	2.21236
19.71	2.19558
19.72	2.21104
19.73	2.20216
19.74	2.19262
19.75	2.20512
19.76	2.18538
19.77	2.17551
19.78	2.1913
19.79	2.19821
19.8	2.20479
19.81	2.19591
19.82	2.21334
19.83	2.2265
19.84	2.21795
19.85	2.23111
19.86	2.214
19.87	2.19953
19.88	2.19953
19.89	2.21959
19.9	2.20018
19.91	2.19953
19.92	2.20479
19.93	2.20413
19.94	2.18768
19.95	2.20479
19.96	2.18736
19.97	2.20183
19.98	2.21499
19.99	2.20775
20	2.19361
20.01	2.16729
20.02	2.21104
20.03	2.21729
20.04	2.21499
20.05	2.20018
20.06	2.21334
20.07	2.16564
20.08	2.17387
20.09	2.22551
20.1	2.23144
20.11	2.18867
20.12	2.1867
20.13	2.19163
20.14	2.18801
20.15	2.19887
20.16	2.189
20.17	2.15676
20.18	2.19032
20.19	2.19262
20.2	2.16992
20.21	2.18571
20.22	2.2015
20.23	2.21663
20.24	2.20413
20.25	2.22486
20.26	2.20216
20.27	2.20841
20.28	2.19492
20.29	2.21663
20.3	2.22091
20.31	2.19295
20.32	2.18933
20.33	2.20676
20.34	2.20841
20.35	2.20841
20.36	2.19459
20.37	2.20742
20.38	2.20808
20.39	2.21663
20.4	2.20676
20.41	2.21071
20.42	2.22486
20.43	2.20611
20.44	2.20775
20.45	2.21795
20.46	2.25315
20.47	2.21071
20.48	2.17584
20.49	2.17782
20.5	2.20347
20.51	2.21762
20.52	2.189
20.53	2.20676
20.54	2.20018
20.55	2.22683
20.56	2.21071
20.57	2.20742
20.58	2.21071
20.59	2.19361
20.6	2.18275
20.61	2.21104
20.62	2.1913
20.63	2.20249
20.64	2.18834
20.65	2.20084
20.66	2.18143
20.67	2.19722
20.68	2.15841
20.69	2.20051
20.7	2.19657
20.71	2.2163
20.72	2.18933
20.73	2.21959
20.74	2.20117
20.75	2.20545
20.76	2.22124
20.77	2.20249
20.78	2.19624
20.79	2.1969
20.8	2.17025
20.81	2.214
20.82	2.22617
20.83	2.19459
20.84	2.20775
20.85	2.2219
20.86	2.18209
20.87	2.21071
20.88	2.214
20.89	2.20643
20.9	2.21959
20.91	2.17124
20.92	2.21269
20.93	2.20972
20.94	2.21104
20.95	2.2117
20.96	2.20018
20.97	2.18637
20.98	2.19328
20.99	2.21894
21	2.20347
21.01	2.21663
21.02	2.20775
21.03	2.1913
21.04	2.19459
21.05	2.20051
21.06	2.2015
21.07	2.189
21.08	2.20183
21.09	2.22486
21.1	2.18768
21.11	2.19361
21.12	2.20282
21.13	2.19032
21.14	2.20018
21.15	2.214
21.16	2.17091
21.17	2.18407
21.18	2.19788
21.19	2.17157
21.2	2.1969
21.21	2.1663
21.22	2.17716
21.23	2.19624
21.24	2.19953
21.25	2.18538
21.26	2.19624
21.27	2.20051
21.28	2.21137
21.29	2.22255
21.3	2.19163
21.31	2.19262
21.32	2.18407
21.33	2.20446
21.34	2.20446
21.35	2.21926
21.36	2.1992
21.37	2.19953
21.38	2.19328
21.39	2.22584
21.4	2.20676
21.41	2.19492
21.42	2.23341
21.43	2.22749
21.44	2.18275
21.45	2.21828
21.46	2.19295
21.47	2.21992
21.48	2.18407
21.49	2.1788
21.5	2.18374
21.51	2.17354
21.52	2.19788
21.53	2.19624
21.54	2.19854
21.55	2.19097
21.56	2.19624
21.57	2.22749
21.58	2.22354
21.59	2.20578
21.6	2.22124
21.61	2.19064
21.62	2.16597
21.63	2.1788
21.64	2.1686
21.65	2.19064
21.66	2.18933
21.67	2.21005
21.68	2.20183
21.69	2.18933
21.7	2.19854
21.71	2.21071
21.72	2.22716
21.73	2.23341
21.74	2.22848
21.75	2.18834
21.76	2.16729
21.77	2.16597
21.78	2.2117
21.79	2.1992
21.8	2.21071
21.81	2.18966
21.82	2.20742
21.83	2.20742
21.84	2.20676
21.85	2.19624
21.86	2.19821
21.87	2.19821
21.88	2.19591
21.89	2.2094
21.9	2.19328
21.91	2.20578
21.92	2.20413
21.93	2.17749
21.94	2.1788
21.95	2.17321
21.96	2.21005
21.97	2.21795
21.98	2.2163
21.99	2.17782
22	2.16564
22.01	2.22255
22.02	2.22058
22.03	2.20841
22.04	2.20907
22.05	2.20775
22.06	2.19657
22.07	2.19624
22.08	2.18933
22.09	2.19459
22.1	2.17749
22.11	2.18867
22.12	2.21203
22.13	2.22354
22.14	2.17847
22.15	2.1788
22.16	2.18209
22.17	2.19097
22.18	2.18045
22.19	2.18604
22.2	2.189
22.21	2.21926
22.22	2.20084
22.23	2.16926
22.24	2.21565
22.25	2.23341
22.26	2.2163
22.27	2.1867
22.28	2.22387
22.29	2.22091
22.3	2.21038
22.31	2.20347
22.32	2.22255
22.33	2.21861
22.34	2.21071
22.35	2.19361
22.36	2.20446
22.37	2.21696
22.38	2.19755
22.39	2.20018
22.4	2.19393
22.41	2.20117
22.42	2.18604
22.43	2.18078
22.44	2.16663
22.45	2.14327
22.46	2.17847
22.47	2.20183
22.48	2.18637
22.49	2.19591
22.5	2.18966
22.51	2.19426
22.52	2.17584
22.53	2.20972
22.54	2.19986
22.55	2.18933
22.56	2.1617
22.57	2.20249
22.58	2.19229
22.59	2.21005
22.6	2.20084
22.61	2.18933
22.62	2.214
22.63	2.21038
22.64	2.18933
22.65	2.17979
22.66	2.17584
22.67	2.20347
22.68	2.1992
22.69	2.21104
22.7	2.21301
22.71	2.18111
22.72	2.19624
22.73	2.19393
22.74	2.18801
22.75	2.2015
22.76	2.18439
22.77	2.18933
22.78	2.20841
22.79	2.19064
22.8	2.18933
22.81	2.21433
22.82	2.23111
22.83	2.19229
22.84	2.19624
22.85	2.17979
22.86	2.18045
22.87	2.18637
22.88	2.18966
22.89	2.19591
22.9	2.21861
22.91	2.19722
22.92	2.22551
22.93	2.21433
22.94	2.20643
22.95	2.21597
22.96	2.19591
22.97	2.20183
22.98	2.18999
22.99	2.18736
23	2.18407
23.01	2.1765
23.02	2.1992
23.03	2.21861
23.04	2.21663
23.05	2.20841
23.06	2.20709
23.07	2.19657
23.08	2.1969
23.09	2.20775
23.1	2.19426
23.11	2.18933
23.12	2.20084
23.13	2.21104
23.14	2.214
23.15	2.24394
23.16	2.19492
23.17	2.19953
23.18	2.22551
23.19	2.2038
23.2	2.2094
23.21	2.19492
23.22	2.1913
23.23	2.15512
23.24	2.19393
23.25	2.21104
23.26	2.19657
23.27	2.17387
23.28	2.17979
23.29	2.17913
23.3	2.23078
23.31	2.22815
23.32	2.20018
23.33	2.1992
23.34	2.20216
23.35	2.22058
23.36	2.22486
23.37	2.18505
23.38	2.17584
23.39	2.21137
23.4	2.18439
23.41	2.19097
23.42	2.19064
23.43	2.18604
23.44	2.20611
23.45	2.20282
23.46	2.19558
23.47	2.20413
23.48	2.19328
23.49	2.18308
23.5	2.21597
23.51	2.21466
23.52	2.23275
23.53	2.2117
23.54	2.22321
23.55	2.22617
23.56	2.21071
23.57	2.18801
23.58	2.20676
23.59	2.19624
23.6	2.19295
23.61	2.19262
23.62	2.19295
23.63	2.20018
23.64	2.20643
23.65	2.21236
23.66	2.19328
23.67	2.19657
23.68	2.20676
23.69	2.20972
23.7	2.19262
23.71	2.20775
23.72	2.22848
23.73	2.2094
23.74	2.20611
23.75	2.21367
23.76	2.19097
23.77	2.22255
23.78	2.19591
23.79	2.20117
23.8	2.19986
23.81	2.19986
23.82	2.21762
23.83	2.2117
23.84	2.20907
23.85	2.19032
23.86	2.18933
23.87	2.21894
23.88	2.18801
23.89	2.1969
23.9	2.1992
23.91	2.19558
23.92	2.19821
23.93	2.20117
23.94	2.20512
23.95	2.23078
23.96	2.214
23.97	2.18407
23.98	2.20084
23.99	2.22288
24	2.20479
24.01	2.19262
24.02	2.19854
24.03	2.21729
24.04	2.22288
24.05	2.21663
24.06	2.21894
24.07	2.20413
24.08	2.19887
24.09	2.21269
24.1	2.19229
24.11	2.22124
24.12	2.20611
24.13	2.20018
24.14	2.21861
24.15	2.23275
24.16	2.19393
24.17	2.19887
24.18	2.19821
24.19	2.20578
24.2	2.18439
24.21	2.19459
24.22	2.24163
24.23	2.20611
24.24	2.18703
24.25	2.18439
24.26	2.19459
24.27	2.20545
24.28	2.20216
24.29	2.19953
24.3	2.19591
24.31	2.2015
24.32	2.18176
24.33	2.19591
24.34	2.19328
24.35	2.19854
24.36	2.20775
24.37	2.21795
24.38	2.19558
24.39	2.17124
24.4	2.18012
24.41	2.20018
24.42	2.20051
24.43	2.19459
24.44	2.2117
24.45	2.21762
24.46	2.20907
24.47	2.19657
24.48	2.21762
24.49	2.22091
24.5	2.19986
24.51	2.22979
24.52	2.20413
24.53	2.17782
24.54	2.19854
24.55	2.21104
24.56	2.16663
24.57	2.20117
24.58	2.17913
24.59	2.21334
24.6	2.20972
24.61	2.20018
24.62	2.18637
24.63	2.20545
24.64	2.19755
24.65	2.21729
24.66	2.22617
24.67	2.189
24.68	2.17387
24.69	2.17847
24.7	2.20183
24.71	2.19196
24.72	2.16466
24.73	2.19163
24.74	2.21565
24.75	2.21795
24.76	2.20347
24.77	2.18933
24.78	2.17255
24.79	2.20117
24.8	2.19854
24.81	2.18966
24.82	2.21466
24.83	2.21795
24.84	2.21137
24.85	2.23407
24.86	2.21795
24.87	2.21861
24.88	2.21795
24.89	2.21894
24.9	2.18801
24.91	2.21861
24.92	2.23176
24.93	2.19097
24.94	2.20907
24.95	2.21334
24.96	2.20709
24.97	2.20018
24.98	2.20545
24.99	2.21104
25	2.19032
25.01	2.19393
25.02	2.20775
25.03	2.18834
25.04	2.19722
25.05	2.18341
25.06	2.19953
25.07	2.18341
25.08	2.19426
25.09	2.20216
25.1	2.21203
25.11	2.20611
25.12	2.17782
25.13	2.19163
25.14	2.19591
25.15	2.20643
25.16	2.21433
25.17	2.19986
25.18	2.19722
25.19	2.18834
25.2	2.18407
25.21	2.20512
25.22	2.21466
25.23	2.20084
25.24	2.22321
25.25	2.21597
25.26	2.19032
25.27	2.19328
25.28	2.20643
25.29	2.18966
25.3	2.22453
25.31	2.20315
25.32	2.2117
25.33	2.19426
25.34	2.20676
25.35	2.20084
25.36	2.19722
25.37	2.2015
25.38	2.21729
25.39	2.22453
25.4	2.20841
25.41	2.19755
25.42	2.19262
25.43	2.20808
25.44	2.18407
25.45	2.19426
25.46	2.1867
25.47	2.1913
25.48	2.17946
25.49	2.18834
25.5	2.18439
25.51	2.18933
25.52	2.19953
25.53	2.20347
25.54	2.20578
25.55	2.19426
25.56	2.19064
25.57	2.18999
25.58	2.20578
25.59	2.19558
25.6	2.20972
25.61	2.19525
25.62	2.20413
25.63	2.19032
25.64	2.1992
25.65	2.18604
25.66	2.17058
25.67	2.19755
25.68	2.21861
25.69	2.20676
25.7	2.19328
25.71	2.20643
25.72	2.18604
25.73	2.17617
25.74	2.18538
25.75	2.21597
25.76	2.22387
25.77	2.19064
25.78	2.18439
25.79	2.18407
25.8	2.19032
25.81	2.19196
25.82	2.19887
25.83	2.19788
25.84	2.20282
25.85	2.19953
25.86	2.17584
25.87	2.19821
25.88	2.21828
25.89	2.2117
25.9	2.20676
25.91	2.19328
25.92	2.22848
25.93	2.1561
25.94	2.22946
25.95	2.22255
25.96	2.20775
25.97	2.20808
25.98	2.19624
25.99	2.20578
26	2.19788
26.01	2.20874
26.02	2.20479
26.03	2.20874
26.04	2.17749
26.05	2.16597
26.06	2.20512
26.07	2.19953
26.08	2.16466
26.09	2.189
26.1	2.21104
26.11	2.21762
26.12	2.22584
26.13	2.20709
26.14	2.2094
26.15	2.22749
26.16	2.20742
26.17	2.18505
26.18	2.18439
26.19	2.22683
26.2	2.23769
26.21	2.2265
26.22	2.18867
26.23	2.19229
26.24	2.22124
26.25	2.22124
26.26	2.21334
26.27	2.22222
26.28	2.17518
26.29	2.22091
26.3	2.21663
26.31	2.22979
26.32	2.21894
26.33	2.20545
26.34	2.22354
26.35	2.22815
26.36	2.20216
26.37	2.214
26.38	2.20413
26.39	2.20775
26.4	2.18407
26.41	2.21301
26.42	2.20643
26.43	2.19525
26.44	2.19163
26.45	2.17946
26.46	2.19591
26.47	2.18176
26.48	2.18374
26.49	2.16597
26.5	2.19492
26.51	2.2015
26.52	2.19591
26.53	2.20051
26.54	2.20676
26.55	2.18275
26.56	2.2094
26.57	2.22222
26.58	2.19558
26.59	2.20775
26.6	2.20775
26.61	2.21532
26.62	2.20676
26.63	2.20611
26.64	2.19459
26.65	2.17716
26.66	2.21104
26.67	2.20512
26.68	2.17913
26.69	2.1867
26.7	2.20907
26.71	2.20545
26.72	2.18407
26.73	2.19755
26.74	2.17749
26.75	2.18703
26.76	2.18933
26.77	2.21762
26.78	2.20413
26.79	2.19361
26.8	2.21005
26.81	2.19854
26.82	2.18966
26.83	2.20018
26.84	2.19097
26.85	2.18407
26.86	2.18637
26.87	2.19328
26.88	2.18308
26.89	2.19393
26.9	2.20545
26.91	2.21499
26.92	2.20808
26.93	2.19525
26.94	2.21433
26.95	2.21236
26.96	2.19426
26.97	2.2094
26.98	2.20315
26.99	2.21236
27	2.18736
27.01	2.21597
27.02	2.22584
27.03	2.2038
27.04	2.21762
27.05	2.21005
27.06	2.18801
27.07	2.20972
27.08	2.20413
27.09	2.18374
27.1	2.1788
27.11	2.1969
27.12	2.18933
27.13	2.20249
27.14	2.17814
27.15	2.18275
27.16	2.20512
27.17	2.21367
27.18	2.21565
27.19	2.16926
27.2	2.1867
27.21	2.23275
27.22	2.20446
27.23	2.18966
27.24	2.20249
27.25	2.21696
27.26	2.20183
27.27	2.21696
27.28	2.19393
27.29	2.19492
27.3	2.20874
27.31	2.22288
27.32	2.21236
27.33	2.17288
27.34	2.18242
27.35	2.21071
27.36	2.19854
27.37	2.20479
27.38	2.19196
27.39	2.19064
27.4	2.18834
27.41	2.19755
27.42	2.19295
27.43	2.17387
27.44	2.18637
27.45	2.19854
27.46	2.19854
27.47	2.20183
27.48	2.19393
27.49	2.20084
27.5	2.20249
27.51	2.22157
27.52	2.19558
27.53	2.19525
27.54	2.20084
27.55	2.18505
27.56	2.18604
27.57	2.19262
27.58	2.1992
27.59	2.23111
27.6	2.18078
27.61	2.20084
27.62	2.2117
27.63	2.20808
27.64	2.20611
27.65	2.18275
27.66	2.20578
27.67	2.19295
27.68	2.18012
27.69	2.2094
27.7	2.20018
27.71	2.21038
27.72	2.20545
27.73	2.20084
27.74	2.21236
27.75	2.21499
27.76	2.20742
27.77	2.20183
27.78	2.21433
27.79	2.22025
27.8	2.20775
27.81	2.19064
27.82	2.16433
27.83	2.17387
27.84	2.20742
27.85	2.214
27.86	2.20117
27.87	2.20775
27.88	2.19295
27.89	2.19887
27.9	2.19393
27.91	2.20051
27.92	2.19821
27.93	2.19492
27.94	2.20907
27.95	2.19657
27.96	2.19492
27.97	2.23176
27.98	2.23374
27.99	2.214
28	2.19558
28.01	2.18407
28.02	2.21499
28.03	2.22486
28.04	2.20808
28.05	2.17453
28.06	2.21038
28.07	2.1913
28.08	2.18045
28.09	2.22617
28.1	2.19492
28.11	2.21597
28.12	2.20018
28.13	2.20018
28.14	2.20051
28.15	2.21071
28.16	2.22551
28.17	2.19854
28.18	2.1969
28.19	2.18604
28.2	2.20216
28.21	2.21433
28.22	2.2242
28.23	2.21795
28.24	2.18308
28.25	2.18834
28.26	2.18933
28.27	2.20578
28.28	2.2015
28.29	2.18242
28.3	2.20841
28.31	2.18703
28.32	2.18801
28.33	2.19229
28.34	2.21301
28.35	2.18933
28.36	2.20249
28.37	2.22255
28.38	2.17782
28.39	2.16104
28.4	2.20446
28.41	2.20874
28.42	2.2367
28.43	2.23111
28.44	2.18078
28.45	2.17946
28.46	2.20972
28.47	2.20051
28.48	2.19163
28.49	2.21203
28.5	2.20512
28.51	2.20643
28.52	2.20512
28.53	2.19591
28.54	2.20282
28.55	2.22091
28.56	2.20347
28.57	2.21433
28.58	2.18439
28.59	2.18538
28.6	2.18176
28.61	2.19854
28.62	2.17387
28.63	2.20512
28.64	2.20709
28.65	2.20972
28.66	2.22913
28.67	2.2094
28.68	2.19657
28.69	2.18768
28.7	2.17782
28.71	2.17782
28.72	2.19558
28.73	2.20183
28.74	2.21137
28.75	2.16564
28.76	2.16959
28.77	2.20808
28.78	2.19558
28.79	2.19393
28.8	2.20874
28.81	2.22683
28.82	2.20084
28.83	2.18505
28.84	2.22157
28.85	2.19361
28.86	2.21696
28.87	2.21992
28.88	2.1969
28.89	2.20578
28.9	2.21038
28.91	2.19591
28.92	2.21499
28.93	2.19262
28.94	2.20413
28.95	2.20413
28.96	2.21565
28.97	2.23275
28.98	2.21104
28.99	2.19328
29	2.19196
29.01	2.20676
29.02	2.20775
29.03	2.21334
29.04	2.21433
29.05	2.19361
29.06	2.18143
29.07	2.21861
29.08	2.19459
29.09	2.2242
29.1	2.19953
29.11	2.18966
29.12	2.19558
29.13	2.1867
29.14	2.19097
29.15	2.19163
29.16	2.18407
29.17	2.19821
29.18	2.20084
29.19	2.20315
29.2	2.18341
29.21	2.19986
29.22	2.20874
29.23	2.21992
29.24	2.17946
29.25	2.20479
29.26	2.24361
29.27	2.20315
29.28	2.18571
29.29	2.2015
29.3	2.19262
29.31	2.1913
29.32	2.19262
29.33	2.19393
29.34	2.17354
29.35	2.22321
29.36	2.20282
29.37	2.189
29.38	2.21301
29.39	2.22025
29.4	2.23078
29.41	2.19788
29.42	2.18472
29.43	2.21104
29.44	2.19064
29.45	2.20084
29.46	2.18801
29.47	2.20512
29.48	2.19986
29.49	2.18012
29.5	2.18703
29.51	2.22124
29.52	2.20578
29.53	2.21466
29.54	2.17913
29.55	2.17814
29.56	2.19064
29.57	2.19426
29.58	2.20578
29.59	2.20742
29.6	2.20709
29.61	2.19624
29.62	2.21926
29.63	2.19163
29.64	2.20183
29.65	2.18933
29.66	2.21071
29.67	2.18834
29.68	2.18933
29.69	2.19657
29.7	2.20972
29.71	2.19755
29.72	2.19657
29.73	2.18176
29.74	2.17222
29.75	2.20216
29.76	2.18143
29.77	2.19854
29.78	2.21499
29.79	2.20282
29.8	2.19196
29.81	2.20051
29.82	2.20742
29.83	2.19525
29.84	2.21532
29.85	2.19426
29.86	2.21696
29.87	2.21301
29.88	2.20018
29.89	2.21334
29.9	2.19624
29.91	2.18867
29.92	2.21992
29.93	2.21137
29.94	2.214
29.95	2.2265
29.96	2.22091
29.97	2.23571
29.98	2.22091
29.99	2.21532
30	2.21236
30.01	2.20413
30.02	2.17979
30.03	2.15216
30.04	2.18538
30.05	2.2117
30.06	2.18933
30.07	2.20512
30.08	2.20709
30.09	2.23209
30.1	2.21696
30.11	2.21104
30.12	2.22486
30.13	2.19163
30.14	2.21038
30.15	2.19558
30.16	2.24196
30.17	2.21828
30.18	2.23012
30.19	2.21334
30.2	2.19591
30.21	2.16959
30.22	2.18111
30.23	2.20282
30.24	2.21532
30.25	2.20512
30.26	2.21137
30.27	2.21367
30.28	2.18867
30.29	2.18801
30.3	2.20216
30.31	2.20643
30.32	2.19722
30.33	2.18571
30.34	2.20808
30.35	2.22683
30.36	2.21696
30.37	2.20446
30.38	2.20775
30.39	2.19755
30.4	2.18275
30.41	2.1992
30.42	2.20216
30.43	2.19591
30.44	2.21104
30.45	2.20775
30.46	2.17189
30.47	2.18078
30.48	2.20545
30.49	2.22124
30.5	2.20479
30.51	2.21532
30.52	2.19361
30.53	2.21795
30.54	2.20841
30.55	2.22025
30.56	2.214
30.57	2.18604
30.58	2.17288
30.59	2.20282
30.6	2.22354
30.61	2.19196
30.62	2.20249
30.63	2.20775
30.64	2.2015
30.65	2.18604
30.66	2.19032
30.67	2.20446
30.68	2.19097
30.69	2.19558
30.7	2.1788
30.71	2.1765
30.72	2.20084
30.73	2.20907
30.74	2.18867
30.75	2.20051
30.76	2.18933
30.77	2.19657
30.78	2.20216
30.79	2.21992
30.8	2.18703
30.81	2.18637
30.82	2.1867
30.83	2.21334
30.84	2.21565
30.85	2.19064
30.86	2.21795
30.87	2.16696
30.88	2.19624
30.89	2.17617
30.9	2.17189
30.91	2.20479
30.92	2.21334
30.93	2.21005
30.94	2.19821
30.95	2.2117
30.96	2.19887
30.97	2.189
30.98	2.21301
30.99	2.19591
31	2.21334
31.01	2.19361
31.02	2.18867
31.03	2.19459
31.04	2.17453
31.05	2.2219
31.06	2.21696
31.07	2.20742
31.08	2.19953
31.09	2.1867
31.1	2.18472
31.11	2.18604
31.12	2.20775
31.13	2.19887
31.14	2.18933
31.15	2.1992
31.16	2.19492
31.17	2.189
31.18	2.2242
31.19	2.19986
31.2	2.21269
31.21	2.20117
31.22	2.21104
31.23	2.20643
31.24	2.19361
31.25	2.19459
31.26	2.19755
31.27	2.18538
31.28	2.18768
31.29	2.21762
31.3	2.20676
31.31	2.18439
31.32	2.20874
31.33	2.19361
31.34	2.17387
31.35	2.1992
31.36	2.21433
31.37	2.22683
31.38	2.20216
31.39	2.22354
31.4	2.18505
31.41	2.19887
31.42	2.20249
31.43	2.21597
31.44	2.20183
31.45	2.18867
31.46	2.2117
31.47	2.2492
31.48	2.18867
31.49	2.1788
31.5	2.21269
31.51	2.21795
31.52	2.18045
31.53	2.19361
31.54	2.18143
31.55	2.21269
31.56	2.21926
31.57	2.20315
31.58	2.18834
31.59	2.18078
31.6	2.19196
31.61	2.18801
31.62	2.21104
31.63	2.20183
31.64	2.20282
31.65	2.19591
31.66	2.20512
31.67	2.19986
31.68	2.21334
31.69	2.20216
31.7	2.20249
31.71	2.19163
31.72	2.20709
31.73	2.1913
31.74	2.20808
31.75	2.20874
31.76	2.19459
31.77	2.18078
31.78	2.20018
31.79	2.21334
31.8	2.22782
31.81	2.19361
31.82	2.19591
31.83	2.21597
31.84	2.22025
31.85	2.19788
31.86	2.20315
31.87	2.22321
31.88	2.22584
31.89	2.21137
31.9	2.18999
31.91	2.19887
31.92	2.1913
31.93	2.21005
31.94	2.21301
31.95	2.21466
31.96	2.20282
31.97	2.19097
31.98	2.19755
31.99	2.17518
32	2.20183
32.01	2.19854
32.02	2.19064
32.03	2.20479
32.04	2.19953
32.05	2.21038
32.06	2.17617
32.07	2.16893
32.08	2.21565
32.09	2.20841
32.1	2.21597
32.11	2.18933
32.12	2.18801
32.13	2.20315
32.14	2.17025
32.15	2.22815
32.16	2.20578
32.17	2.21565
32.18	2.19821
32.19	2.20413
32.2	2.22354
32.21	2.19953
32.22	2.16499
32.23	2.19032
32.24	2.20775
32.25	2.20808
32.26	2.22091
32.27	2.17124
32.28	2.20051
32.29	2.22519
32.3	2.19755
32.31	2.19064
32.32	2.17814
32.33	2.20051
32.34	2.19393
32.35	2.22058
32.36	2.20545
32.37	2.18045
32.38	2.18933
32.39	2.20808
32.4	2.23769
32.41	2.23078
32.42	2.21499
32.43	2.20446
32.44	2.17847
32.45	2.19196
32.46	2.18933
32.47	2.19657
32.48	2.19525
32.49	2.19163
32.5	2.18078
32.51	2.20413
32.52	2.19426
32.53	2.18703
32.54	2.21466
32.55	2.19722
32.56	2.16795
32.57	2.19492
32.58	2.23078
32.59	2.24394
32.6	2.22387
32.61	2.20347
32.62	2.18768
32.63	2.20874
32.64	2.20315
32.65	2.20545
32.66	2.19887
32.67	2.22946
32.68	2.18703
32.69	2.19295
32.7	2.17847
32.71	2.20446
32.72	2.19262
32.73	2.20808
32.74	2.21433
32.75	2.19328
32.76	2.23209
32.77	2.1969
32.78	2.19788
32.79	2.18143
32.8	2.20249
32.81	2.19788
32.82	2.21532
32.83	2.19624
32.84	2.19196
32.85	2.22091
32.86	2.1992
32.87	2.18736
32.88	2.20249
32.89	2.20611
32.9	2.20512
32.91	2.20512
32.92	2.21894
32.93	2.20084
32.94	2.20084
32.95	2.19262
32.96	2.20216
32.97	2.20742
32.98	2.22157
32.99	2.19887
33	2.21565
33.01	2.21795
33.02	2.1969
33.03	2.22091
33.04	2.19657
33.05	2.18012
33.06	2.16334
33.07	2.20907
33.08	2.17255
33.09	2.17979
33.1	2.19097
33.11	2.19591
33.12	2.18078
33.13	2.16367
33.14	2.15051
33.15	2.17157
33.16	2.17518
33.17	2.2038
33.18	2.18933
33.19	2.18736
33.2	2.19032
33.21	2.20117
33.22	2.18407
33.23	2.21005
33.24	2.20249
33.25	2.2117
33.26	2.214
33.27	2.19558
33.28	2.18604
33.29	2.20413
33.3	2.19755
33.31	2.24098
33.32	2.21663
33.33	2.19525
33.34	2.19262
33.35	2.17814
33.36	2.18999
33.37	2.19558
33.38	2.20907
33.39	2.20709
33.4	2.18209
33.41	2.19591
33.42	2.21729
33.43	2.19788
33.44	2.21005
33.45	2.2038
33.46	2.18242
33.47	2.21071
33.48	2.20545
33.49	2.21926
33.5	2.21071
33.51	2.21071
33.52	2.21926
33.53	2.17617
33.54	2.18045
33.55	2.20512
33.56	2.1913
33.57	2.20512
33.58	2.20545
33.59	2.20051
33.6	2.20084
33.61	2.20512
33.62	2.20709
33.63	2.21729
33.64	2.1969
33.65	2.1765
33.66	2.20479
33.67	2.19722
33.68	2.21959
33.69	2.20216
33.7	2.19196
33.71	2.22124
33.72	2.20315
33.73	2.16762
33.74	2.21005
33.75	2.19854
33.76	2.23078
33.77	2.21334
33.78	2.18012
33.79	2.19426
33.8	2.19755
33.81	2.19591
33.82	2.19591
33.83	2.20084
33.84	2.17124
33.85	2.17979
33.86	2.20282
33.87	2.19163
33.88	2.20611
33.89	2.21433
33.9	2.16926
33.91	2.16729
33.92	2.21203
33.93	2.20018
33.94	2.20578
33.95	2.18966
33.96	2.21334
33.97	2.17189
33.98	2.1765
33.99	2.23966
34	2.22025
34.01	2.19492
34.02	2.19064
34.03	2.18308
34.04	2.19295
34.05	2.20249
34.06	2.18308
34.07	2.22091
34.08	2.18407
34.09	2.20315
34.1	2.17025
34.11	2.2163
34.12	2.21729
34.13	2.21663
34.14	2.20479
34.15	2.19262
34.16	2.18407
34.17	2.20347
34.18	2.24657
34.19	2.2015
34.2	2.17288
34.21	2.20446
34.22	2.21334
34.23	2.19525
34.24	2.20446
34.25	2.18012
34.26	2.18407
34.27	2.21762
34.28	2.19657
34.29	2.20117
34.3	2.21005
34.31	2.19788
34.32	2.17584
34.33	2.20315
34.34	2.2038
34.35	2.21334
34.36	2.22157
34.37	2.23275
34.38	2.20413
34.39	2.20709
34.4	2.19525
34.41	2.18703
34.42	2.21236
34.43	2.20808
34.44	2.21104
34.45	2.18078
34.46	2.18308
34.47	2.20117
34.48	2.21236
34.49	2.20479
34.5	2.18966
34.51	2.19525
34.52	2.18999
34.53	2.1765
34.54	2.18505
34.55	2.18801
34.56	2.17683
34.57	2.18637
34.58	2.19097
34.59	2.18374
34.6	2.19492
34.61	2.18538
34.62	2.2094
34.63	2.21038
34.64	2.20018
34.65	2.19328
34.66	2.19854
34.67	2.20315
34.68	2.20874
34.69	2.20808
34.7	2.20512
34.71	2.21959
34.72	2.18867
34.73	2.21433
34.74	2.19788
34.75	2.19953
34.76	2.19986
34.77	2.18275
34.78	2.17189
34.79	2.18407
34.8	2.18439
34.81	2.1867
34.82	2.2492
34.83	2.19163
34.84	2.1913
34.85	2.17255
34.86	2.17979
34.87	2.20282
34.88	2.21696
34.89	2.19295
34.9	2.20051
34.91	2.20676
34.92	2.21137
34.93	2.20709
34.94	2.19558
34.95	2.19032
34.96	2.19887
34.97	2.21334
34.98	2.19624
34.99	2.20216
35	2.20808
35.01	2.18538
35.02	2.19492
35.03	2.23078
35.04	2.22519
35.05	2.21005
35.06	2.18505
35.07	2.17782
35.08	2.17584
35.09	2.17354
35.1	2.18933
35.11	2.20611
35.12	2.18703
35.13	2.19492
35.14	2.2094
35.15	2.18834
35.16	2.21203
35.17	2.189
35.18	2.19591
35.19	2.20315
35.2	2.20709
35.21	2.21038
35.22	2.21861
35.23	2.18374
35.24	2.19064
35.25	2.18867
35.26	2.17683
35.27	2.20709
35.28	2.21104
35.29	2.20907
35.3	2.2117
35.31	2.22288
35.32	2.21269
35.33	2.20347
35.34	2.20446
35.35	2.18242
35.36	2.21269
35.37	2.19328
35.38	2.19854
35.39	2.18078
35.4	2.17946
35.41	2.21729
35.42	2.19262
35.43	2.19854
35.44	2.23538
35.45	2.22058
35.46	2.21499
35.47	2.19163
35.48	2.20282
35.49	2.19361
35.5	2.19953
35.51	2.16992
35.52	2.17288
35.53	2.17485
35.54	2.19887
35.55	2.20018
35.56	2.22321
35.57	2.21499
35.58	2.23703
35.59	2.23176
35.6	2.22222
35.61	2.18571
35.62	2.19887
35.63	2.21565
35.64	2.21466
35.65	2.21466
35.66	2.20907
35.67	2.19064
35.68	2.18176
35.69	2.19525
35.7	2.22222
35.71	2.22354
35.72	2.21236
35.73	2.17321
35.74	2.17617
35.75	2.22782
35.76	2.21236
35.77	2.20183
35.78	2.23769
35.79	2.22157
35.8	2.2094
35.81	2.21137
35.82	2.18341
35.83	2.20084
35.84	2.22222
35.85	2.20051
35.86	2.21532
35.87	2.19393
35.88	2.19624
35.89	2.20972
35.9	2.20183
35.91	2.20512
35.92	2.21269
35.93	2.18999
35.94	2.18472
35.95	2.20709
35.96	2.19657
35.97	2.214
35.98	2.19821
35.99	2.1742
36	2.17321
36.01	2.18472
36.02	2.20051
36.03	2.20742
36.04	2.19788
36.05	2.19525
36.06	2.20051
36.07	2.20841
36.08	2.20611
36.09	2.24032
36.1	2.20611
36.11	2.18801
36.12	2.18834
36.13	2.1913
36.14	2.19788
36.15	2.18768
36.16	2.19624
36.17	2.19492
36.18	2.21795
36.19	2.19525
36.2	2.17255
36.21	2.17749
36.22	2.22255
36.23	2.23078
36.24	2.18933
36.25	2.17354
36.26	2.17518
36.27	2.18571
36.28	2.19854
36.29	2.21038
36.3	2.20742
36.31	2.20578
36.32	2.24887
36.33	2.21532
36.34	2.20512
36.35	2.20249
36.36	2.21828
36.37	2.20282
36.38	2.18209
36.39	2.20347
36.4	2.18867
36.41	2.20282
36.42	2.20282
36.43	2.20051
36.44	2.22584
36.45	2.20347
36.46	2.20216
36.47	2.22025
36.48	2.20084
36.49	2.15742
36.5	2.18374
36.51	2.18637
36.52	2.21005
36.53	2.22519
36.54	2.26006
36.55	2.22617
36.56	2.19426
36.57	2.20315
36.58	2.19887
36.59	2.2117
36.6	2.22782
36.61	2.19196
36.62	2.20249
36.63	2.21005
36.64	2.21104
36.65	2.17683
36.66	2.19097
36.67	2.21104
36.68	2.20347
36.69	2.20841
36.7	2.18407
36.71	2.19986
36.72	2.21597
36.73	2.20512
36.74	2.22782
36.75	2.21236
36.76	2.22716
36.77	2.21334
36.78	2.18078
36.79	2.21301
36.8	2.21959
36.81	2.23242
36.82	2.23736
36.83	2.20742
36.84	2.19393
36.85	2.18143
36.86	2.19525
36.87	2.19064
36.88	2.21301
36.89	2.21433
36.9	2.18111
36.91	2.18472
36.92	2.20808
36.93	2.20676
36.94	2.2117
36.95	2.21466
36.96	2.20578
36.97	2.19064
36.98	2.18308
36.99	2.21301
37	2.17288
37.01	2.19492
37.02	2.18834
37.03	2.20051
37.04	2.189
37.05	2.20446
37.06	2.20315
37.07	2.18407
37.08	2.22058
37.09	2.21071
37.1	2.19097
37.11	2.19591
37.12	2.20643
37.13	2.18143
37.14	2.19459
37.15	2.18407
37.16	2.19657
37.17	2.19722
37.18	2.19986
37.19	2.19755
37.2	2.19953
37.21	2.21334
37.22	2.21861
37.23	2.21071
37.24	2.21334
37.25	2.19525
37.26	2.17617
37.27	2.2094
37.28	2.22321
37.29	2.20117
37.3	2.20676
37.31	2.22157
37.32	2.214
37.33	2.20084
37.34	2.18275
37.35	2.18604
37.36	2.21466
37.37	2.21532
37.38	2.21959
37.39	2.22782
37.4	2.19229
37.41	2.17485
37.42	2.1969
37.43	2.20775
37.44	2.20676
37.45	2.19755
37.46	2.20446
37.47	2.19591
37.48	2.21729
37.49	2.22288
37.5	2.21367
37.51	2.2117
37.52	2.2038
37.53	2.2117
37.54	2.1686
37.55	2.17979
37.56	2.18374
37.57	2.21762
37.58	2.19986
37.59	2.21301
37.6	2.21795
37.61	2.22486
37.62	2.21005
37.63	2.20907
37.64	2.21038
37.65	2.22453
37.66	2.19854
37.67	2.18045
37.68	2.20676
37.69	2.18736
37.7	2.19328
37.71	2.19591
37.72	2.19492
37.73	2.23308
37.74	2.21334
37.75	2.19558
37.76	2.1913
37.77	2.2015
37.78	2.21005
37.79	2.21861
37.8	2.17617
37.81	2.16828
37.82	2.22058
37.83	2.21828
37.84	2.18801
37.85	2.21367
37.86	2.1913
37.87	2.16893
37.88	2.18012
37.89	2.189
37.9	2.20413
37.91	2.21005
37.92	2.21334
37.93	2.20446
37.94	2.19163
37.95	2.21795
37.96	2.20018
37.97	2.20249
37.98	2.18801
37.99	2.18308
38	2.19722
38.01	2.2015
38.02	2.19328
38.03	2.18472
38.04	2.19064
38.05	2.21466
38.06	2.22058
38.07	2.20051
38.08	2.20018
38.09	2.19722
38.1	2.18012
38.11	2.18637
38.12	2.21597
38.13	2.21894
38.14	2.20709
38.15	2.164
38.16	2.19854
38.17	2.19459
38.18	2.19657
38.19	2.20742
38.2	2.20018
38.21	2.21565
38.22	2.20249
38.23	2.20479
38.24	2.20446
38.25	2.19755
38.26	2.25216
38.27	2.21828
38.28	2.18012
38.29	2.18341
38.3	2.19986
38.31	2.19295
38.32	2.2038
38.33	2.2038
38.34	2.19953
38.35	2.18867
38.36	2.20216
38.37	2.1969
38.38	2.18374
38.39	2.17979
38.4	2.21894
38.41	2.22848
38.42	2.19788
38.43	2.2117
38.44	2.23078
38.45	2.22387
38.46	2.19525
38.47	2.19393
38.48	2.19295
38.49	2.17979
38.5	2.20611
38.51	2.20282
38.52	2.19163
38.53	2.21565
38.54	2.19064
38.55	2.1788
38.56	2.1992
38.57	2.18505
38.58	2.1788
38.59	2.19854
38.6	2.19492
38.61	2.19393
38.62	2.16104
38.63	2.17782
38.64	2.19426
38.65	2.2265
38.66	2.18637
38.67	2.16959
38.68	2.20347
38.69	2.19361
38.7	2.18768
38.71	2.19722
38.72	2.18933
38.73	2.17551
38.74	2.19953
38.75	2.22716
38.76	2.214
38.77	2.19393
38.78	2.2038
38.79	2.19393
38.8	2.18407
38.81	2.2015
38.82	2.16762
38.83	2.19525
38.84	2.20446
38.85	2.23078
38.86	2.21795
38.87	2.21926
38.88	2.1992
38.89	2.19558
38.9	2.18768
38.91	2.19525
38.92	2.18801
38.93	2.19624
38.94	2.21729
38.95	2.20479
38.96	2.189
38.97	2.20676
38.98	2.20347
38.99	2.23242
39	2.19064
39.01	2.20413
39.02	2.21663
39.03	2.20051
39.04	2.21269
39.05	2.214
39.06	2.19558
39.07	2.21269
39.08	2.16992
39.09	2.19722
39.1	2.19558
39.11	2.19361
39.12	2.18571
39.13	2.20676
39.14	2.20709
39.15	2.20808
39.16	2.19064
39.17	2.18604
39.18	2.22946
39.19	2.21203
39.2	2.21499
39.21	2.18407
39.22	2.21236
39.23	2.22124
39.24	2.21696
39.25	2.20972
39.26	2.189
39.27	2.18472
39.28	2.19426
39.29	2.1992
39.3	2.18538
39.31	2.23012
39.32	2.22749
39.33	2.22255
39.34	2.1867
39.35	2.17288
39.36	2.16729
39.37	2.1969
39.38	2.21334
39.39	2.17387
39.4	2.19426
39.41	2.17288
39.42	2.18604
39.43	2.17025
39.44	2.22519
39.45	2.21828
39.46	2.22848
39.47	2.22519
39.48	2.19328
39.49	2.21038
39.5	2.17518
39.51	2.19196
39.52	2.18111
39.53	2.18407
39.54	2.19163
39.55	2.18538
39.56	2.18604
39.57	2.20117
39.58	2.16203
39.59	2.17716
39.6	2.1742
39.61	2.16926
39.62	2.16926
39.63	2.19163
39.64	2.22946
39.65	2.19657
39.66	2.19525
39.67	2.19229
39.68	2.18538
39.69	2.19821
39.7	2.21367
39.71	2.1742
39.72	2.20249
39.73	2.21203
39.74	2.21005
39.75	2.19229
39.76	2.19558
39.77	2.21828
39.78	2.21795
39.79	2.19953
39.8	2.17453
39.81	2.1742
39.82	2.18933
39.83	2.20545
39.84	2.17617
39.85	2.17518
39.86	2.19755
39.87	2.21729
39.88	2.19393
39.89	2.17485
39.9	2.17189
39.91	2.20117
39.92	2.19755
39.93	2.17749
39.94	2.19788
39.95	2.20183
39.96	2.21499
39.97	2.23275
39.98	2.2015
39.99	2.20545
40	2.20643
40.01	2.21203
40.02	2.20676
40.03	2.2015
40.04	2.19986
40.05	2.18209
40.06	2.17584
40.07	2.17091
40.08	2.1992
40.09	2.21038
40.1	2.22584
40.11	2.21696
40.12	2.22091
40.13	2.19986
40.14	2.18341
40.15	2.2344
40.16	2.19657
40.17	2.16893
40.18	2.189
40.19	2.20413
40.2	2.18966
40.21	2.19558
40.22	2.18999
40.23	2.2242
40.24	2.20183
40.25	2.21104
40.26	2.22716
40.27	2.20051
40.28	2.19361
40.29	2.19295
40.3	2.18111
40.31	2.21861
40.32	2.20676
40.33	2.22486
40.34	2.22486
40.35	2.22453
40.36	2.2288
40.37	2.20347
40.38	2.21301
40.39	2.21959
40.4	2.20643
40.41	2.19591
40.42	2.19558
40.43	2.22058
40.44	2.22617
40.45	2.21926
40.46	2.21959
40.47	2.15643
40.48	2.18472
40.49	2.17946
40.5	2.20117
40.51	2.2015
40.52	2.20709
40.53	2.23078
40.54	2.19657
40.55	2.19953
40.56	2.20018
40.57	2.2015
40.58	2.19525
40.59	2.21104
40.6	2.19196
40.61	2.19788
40.62	2.19426
40.63	2.18176
40.64	2.18604
40.65	2.20643
40.66	2.17321
40.67	2.20479
40.68	2.19064
40.69	2.22222
40.7	2.20117
40.71	2.19426
40.72	2.21729
40.73	2.22979
40.74	2.21301
40.75	2.21269
40.76	2.20117
40.77	2.17979
40.78	2.20874
40.79	2.2242
40.8	2.20841
40.81	2.18933
40.82	2.20775
40.83	2.19097
40.84	2.19558
40.85	2.20051
40.86	2.19295
40.87	2.19525
40.88	2.18143
40.89	2.19953
40.9	2.21334
40.91	2.20249
40.92	2.19624
40.93	2.20643
40.94	2.17617
40.95	2.20413
40.96	2.20578
40.97	2.20709
40.98	2.17814
40.99	2.20084
41	2.19328
41.01	2.22683
41.02	2.20117
41.03	2.1913
41.04	2.19459
41.05	2.18999
41.06	2.18736
41.07	2.20315
41.08	2.19887
41.09	2.21861
41.1	2.20183
41.11	2.22782
41.12	2.21926
41.13	2.21104
41.14	2.19591
41.15	2.19558
41.16	2.19426
41.17	2.21104
41.18	2.20578
41.19	2.19887
41.2	2.21236
41.21	2.22255
41.22	2.21104
41.23	2.19821
41.24	2.21301
41.25	2.19887
41.26	2.18439
41.27	2.20611
41.28	2.21926
41.29	2.23933
41.3	2.21532
41.31	2.19755
41.32	2.17814
41.33	2.1663
41.34	2.1913
41.35	2.19953
41.36	2.19854
41.37	2.21038
41.38	2.21565
41.39	2.1969
41.4	2.18341
41.41	2.214
41.42	2.19953
41.43	2.20578
41.44	2.19821
41.45	2.17288
41.46	2.22124
41.47	2.21762
41.48	2.20051
41.49	2.18834
41.5	2.19953
41.51	2.16268
41.52	2.21203
41.53	2.20051
41.54	2.18768
41.55	2.19722
41.56	2.19657
41.57	2.21071
41.58	2.21861
41.59	2.20907
41.6	2.21499
41.61	2.22091
41.62	2.22124
41.63	2.23505
41.64	2.21894
41.65	2.19755
41.66	2.2163
41.67	2.18505
41.68	2.20643
41.69	2.1992
41.7	2.2015
41.71	2.19459
41.72	2.17584
41.73	2.1969
41.74	2.21203
41.75	2.1969
41.76	2.24098
41.77	2.20775
41.78	2.21137
41.79	2.20874
41.8	2.20216
41.81	2.18111
41.82	2.20841
41.83	2.17584
41.84	2.20676
41.85	2.19295
41.86	2.20512
41.87	2.20709
41.88	2.23867
41.89	2.22815
41.9	2.21367
41.91	2.20841
41.92	2.19953
41.93	2.19492
41.94	2.19163
41.95	2.19163
41.96	2.20479
41.97	2.20413
41.98	2.1765
41.99	2.21828
42	2.20479
42.01	2.2288
42.02	2.17485
42.03	2.19525
42.04	2.20084
42.05	2.22782
42.06	2.21499
42.07	2.19163
42.08	2.17716
42.09	2.19624
42.1	2.20874
42.11	2.20413
42.12	2.18472
42.13	2.20742
42.14	2.19295
42.15	2.2219
42.16	2.18407
42.17	2.20413
42.18	2.21499
42.19	2.2015
42.2	2.20347
42.21	2.22058
42.22	2.21499
42.23	2.18933
42.24	2.20611
42.25	2.19821
42.26	2.20117
42.27	2.18407
42.28	2.20347
42.29	2.21499
42.3	2.19229
42.31	2.17485
42.32	2.19295
42.33	2.23176
42.34	2.19492
42.35	2.20315
42.36	2.21696
42.37	2.23505
42.38	2.21269
42.39	2.17387
42.4	2.20545
42.41	2.21959
42.42	2.22288
42.43	2.21663
42.44	2.21038
42.45	2.22157
42.46	2.23308
42.47	2.19854
42.48	2.1867
42.49	2.16663
42.5	2.20479
42.51	2.19163
42.52	2.1992
42.53	2.19657
42.54	2.17716
42.55	2.20413
42.56	2.20512
42.57	2.19986
42.58	2.18736
42.59	2.21499
42.6	2.21367
42.61	2.21663
42.62	2.19788
42.63	2.21466
42.64	2.22124
42.65	2.2492
42.66	2.20183
42.67	2.19032
42.68	2.20084
42.69	2.15939
42.7	2.16795
42.71	2.16729
42.72	2.18801
42.73	2.21071
42.74	2.18604
42.75	2.2094
42.76	2.18768
42.77	2.18571
42.78	2.2015
42.79	2.21104
42.8	2.19492
42.81	2.20907
42.82	2.20051
42.83	2.19295
42.84	2.19624
42.85	2.20709
42.86	2.18801
42.87	2.18143
42.88	2.18439
42.89	2.21663
42.9	2.20611
42.91	2.21038
42.92	2.18209
42.93	2.1867
42.94	2.18999
42.95	2.19624
42.96	2.15906
42.97	2.19196
42.98	2.21795
42.99	2.20808
43	2.20808
43.01	2.21137
43.02	2.19755
43.03	2.19755
43.04	2.17551
43.05	2.16203
43.06	2.21565
43.07	2.19361
43.08	2.20545
43.09	2.22387
43.1	2.22617
43.11	2.22025
43.12	2.19459
43.13	2.16893
43.14	2.18472
43.15	2.20446
43.16	2.2094
43.17	2.21532
43.18	2.2242
43.19	2.21301
43.2	2.23308
43.21	2.20643
43.22	2.17091
43.23	2.18439
43.24	2.2038
43.25	2.17321
43.26	2.21038
43.27	2.20775
43.28	2.18045
43.29	2.21137
43.3	2.21269
43.31	2.19361
43.32	2.2015
43.33	2.1913
43.34	2.18867
43.35	2.2117
43.36	2.23209
43.37	2.19953
43.38	2.21499
43.39	2.22058
43.4	2.19887
43.41	2.21104
43.42	2.21137
43.43	2.19361
43.44	2.2242
43.45	2.19657
43.46	2.18999
43.47	2.18703
43.48	2.20413
43.49	2.21597
43.5	2.19854
43.51	2.19887
43.52	2.21301
43.53	2.19492
43.54	2.189
43.55	2.18933
43.56	2.19393
43.57	2.18275
43.58	2.21532
43.59	2.20315
43.6	2.23473
43.61	2.19196
43.62	2.19624
43.63	2.1913
43.64	2.18407
43.65	2.21597
43.66	2.1913
43.67	2.19525
43.68	2.18538
43.69	2.214
43.7	2.18472
43.71	2.164
43.72	2.18012
43.73	2.21334
43.74	2.19295
43.75	2.20709
43.76	2.20611
43.77	2.18801
43.78	2.20874
43.79	2.20183
43.8	2.20643
43.81	2.20479
43.82	2.21861
43.83	2.20578
43.84	2.19459
43.85	2.21532
43.86	2.22453
43.87	2.18374
43.88	2.20479
43.89	2.22848
43.9	2.20907
43.91	2.19953
43.92	2.18439
43.93	2.16466
43.94	2.18275
43.95	2.19295
43.96	2.18966
43.97	2.22519
43.98	2.2094
43.99	2.18801
44	2.19821
44.01	2.19953
44.02	2.19657
44.03	2.1992
44.04	2.19788
44.05	2.20216
44.06	2.21565
44.07	2.20512
44.08	2.19558
44.09	2.20512
44.1	2.23867
44.11	2.22815
44.12	2.19097
44.13	2.19163
44.14	2.2015
44.15	2.20282
44.16	2.20216
44.17	2.19229
44.18	2.1686
44.19	2.17979
44.2	2.19591
44.21	2.2038
44.22	2.18801
44.23	2.21071
44.24	2.20216
44.25	2.16597
44.26	2.18571
44.27	2.21334
44.28	2.18078
44.29	2.20841
44.3	2.17749
44.31	2.23242
44.32	2.21038
44.33	2.20315
44.34	2.2038
44.35	2.19295
44.36	2.22157
44.37	2.19426
44.38	2.22815
44.39	2.21861
44.4	2.21104
44.41	2.20972
44.42	2.19492
44.43	2.20512
44.44	2.22124
44.45	2.21499
44.46	2.18242
44.47	2.19328
44.48	2.18374
44.49	2.18045
44.5	2.2015
44.51	2.21762
44.52	2.21334
44.53	2.19821
44.54	2.20676
44.55	2.20413
44.56	2.17716
44.57	2.18209
44.58	2.17222
44.59	2.18768
44.6	2.21959
44.61	2.1992
44.62	2.19064
44.63	2.18801
44.64	2.21203
44.65	2.20972
44.66	2.20874
44.67	2.1992
44.68	2.20446
44.69	2.21104
44.7	2.19459
44.71	2.20051
44.72	2.19558
44.73	2.21071
44.74	2.21433
44.75	2.19064
44.76	2.2038
44.77	2.18637
44.78	2.20808
44.79	2.189
44.8	2.18505
44.81	2.19229
44.82	2.19459
44.83	2.19196
44.84	2.18538
44.85	2.20282
44.86	2.21137
44.87	2.22519
44.88	2.23505
44.89	2.19097
44.9	2.16992
44.91	2.19492
44.92	2.21301
44.93	2.18439
44.94	2.214
44.95	2.19854
44.96	2.19953
44.97	2.1969
44.98	2.19624
44.99	2.20018
45	2.20643
45.01	2.17157
45.02	2.20347
45.03	2.2038
45.04	2.23571
45.05	2.22091
45.06	2.20709
45.07	2.22453
45.08	2.21005
45.09	2.19097
45.1	2.16795
45.11	2.18209
45.12	2.17683
45.13	2.19657
45.14	2.1765
45.15	2.1765
45.16	2.21236
45.17	2.20611
45.18	2.18604
45.19	2.2242
45.2	2.21269
45.21	2.19426
45.22	2.20643
45.23	2.17946
45.24	2.18505
45.25	2.21597
45.26	2.214
45.27	2.21992
45.28	2.19854
45.29	2.19624
45.3	2.16893
45.31	2.17354
45.32	2.22321
45.33	2.1969
45.34	2.22222
45.35	2.20479
45.36	2.21203
45.37	2.20972
45.38	2.19492
45.39	2.19788
45.4	2.19393
45.41	2.19328
45.42	2.22255
45.43	2.21861
45.44	2.19821
45.45	2.20183
45.46	2.19854
45.47	2.23637
45.48	2.18571
45.49	2.19525
45.5	2.2163
45.51	2.2015
45.52	2.1913
45.53	2.17518
45.54	2.21433
45.55	2.20479
45.56	2.19591
45.57	2.19788
45.58	2.20611
45.59	2.18933
45.6	2.21104
45.61	2.20249
45.62	2.21466
45.63	2.21499
45.64	2.19657
45.65	2.20775
45.66	2.20907
45.67	2.19459
45.68	2.20972
45.69	2.21334
45.7	2.20775
45.71	2.19459
45.72	2.20775
45.73	2.19361
45.74	2.19097
45.75	2.18933
45.76	2.17716
45.77	2.19229
45.78	2.18439
45.79	2.16203
45.8	2.1867
45.81	2.17485
45.82	2.20742
45.83	2.22321
45.84	2.20742
45.85	2.19525
45.86	2.20775
45.87	2.18571
45.88	2.20051
45.89	2.17157
45.9	2.1617
45.91	2.21433
45.92	2.19295
45.93	2.20808
45.94	2.20545
45.95	2.20183
45.96	2.19262
45.97	2.20611
45.98	2.23834
45.99	2.20084
46	2.20611
46.01	2.18143
46.02	2.189
46.03	2.17551
46.04	2.19196
46.05	2.189
46.06	2.18111
46.07	2.19064
46.08	2.21861
46.09	2.19788
46.1	2.20775
46.11	2.2038
46.12	2.22157
46.13	2.21762
46.14	2.20413
46.15	2.19624
46.16	2.18867
46.17	2.17683
46.18	2.19426
46.19	2.18801
46.2	2.19032
46.21	2.20117
46.22	2.17913
46.23	2.18111
46.24	2.18111
46.25	2.17485
46.26	2.20709
46.27	2.1742
46.28	2.1913
46.29	2.19525
46.3	2.19821
46.31	2.164
46.32	2.214
46.33	2.21137
46.34	2.18538
46.35	2.17913
46.36	2.20084
46.37	2.22815
46.38	2.20578
46.39	2.19821
46.4	2.20742
46.41	2.2038
46.42	2.19657
46.43	2.20216
46.44	2.20117
46.45	2.20282
46.46	2.2094
46.47	2.2117
46.48	2.20545
46.49	2.21433
46.5	2.20611
46.51	2.20611
46.52	2.21137
46.53	2.18538
46.54	2.16828
46.55	2.20084
46.56	2.21104
46.57	2.22157
46.58	2.21038
46.59	2.18604
46.6	2.19887
46.61	2.20117
46.62	2.21301
46.63	2.21466
46.64	2.20775
46.65	2.20808
46.66	2.21499
46.67	2.20117
46.68	2.19393
46.69	2.19591
46.7	2.19624
46.71	2.18078
46.72	2.21005
46.73	2.21532
46.74	2.15413
46.75	2.14821
46.76	2.17946
46.77	2.20545
46.78	2.18966
46.79	2.20117
46.8	2.16433
46.81	2.17617
46.82	2.21532
46.83	2.21367
46.84	2.21269
46.85	2.20578
46.86	2.21236
46.87	2.20611
46.88	2.19492
46.89	2.214
46.9	2.22749
46.91	2.23769
46.92	2.20117
46.93	2.19032
46.94	2.23275
46.95	2.22848
46.96	2.20578
46.97	2.19196
46.98	2.22486
46.99	2.22025
47	2.21894
47.01	2.19854
47.02	2.21038
47.03	2.20512
47.04	2.22091
47.05	2.19328
47.06	2.19591
47.07	2.19361
47.08	2.20249
47.09	2.22288
47.1	2.20051
47.11	2.18736
47.12	2.16828
47.13	2.1742
47.14	2.20874
47.15	2.18604
47.16	2.18867
47.17	2.20479
47.18	2.21466
47.19	2.22486
47.2	2.20972
47.21	2.21861
47.22	2.21301
47.23	2.21236
47.24	2.20117
47.25	2.17189
47.26	2.20413
47.27	2.20347
47.28	2.20972
47.29	2.20709
47.3	2.2015
47.31	2.20578
47.32	2.18933
47.33	2.20282
47.34	2.21894
47.35	2.2094
47.36	2.20512
47.37	2.24196
47.38	2.18143
47.39	2.20512
47.4	2.20051
47.41	2.19459
47.42	2.20018
47.43	2.19591
47.44	2.18012
47.45	2.21236
47.46	2.20676
47.47	2.19097
47.48	2.20676
47.49	2.20611
47.5	2.20611
47.51	2.19821
47.52	2.17749
47.53	2.21071
47.54	2.20611
47.55	2.20775
47.56	2.22124
47.57	2.19821
47.58	2.18604
47.59	2.20249
47.6	2.23604
47.61	2.20907
47.62	2.20084
47.63	2.18834
47.64	2.21104
47.65	2.20084
47.66	2.19196
47.67	2.22683
47.68	2.189
47.69	2.22321
47.7	2.19032
47.71	2.19097
47.72	2.23473
47.73	2.21137
47.74	2.19887
47.75	2.22913
47.76	2.17551
47.77	2.21894
47.78	2.19887
47.79	2.19229
47.8	2.18933
47.81	2.18439
47.82	2.21236
47.83	2.21894
47.84	2.18242
47.85	2.17387
47.86	2.20084
47.87	2.17946
47.88	2.20117
47.89	2.23703
47.9	2.20643
47.91	2.21466
47.92	2.2219
47.93	2.18867
47.94	2.17782
47.95	2.20643
47.96	2.19821
47.97	2.19722
47.98	2.1969
47.99	2.20578
48	2.16762
48.01	2.17518
48.02	2.19854
48.03	2.17255
48.04	2.19262
48.05	2.17979
48.06	2.20117
48.07	2.21762
48.08	2.21992
48.09	2.19525
48.1	2.19492
48.11	2.19196
48.12	2.19953
48.13	2.20183
48.14	2.21565
48.15	2.19558
48.16	2.23078
48.17	2.18834
48.18	2.20578
48.19	2.19591
48.2	2.19393
48.21	2.20183
48.22	2.19722
48.23	2.16828
48.24	2.22848
48.25	2.19854
48.26	2.22091
48.27	2.20545
48.28	2.2094
48.29	2.19722
48.3	2.2094
48.31	2.20676
48.32	2.1992
48.33	2.19887
48.34	2.20117
48.35	2.18834
48.36	2.21959
48.37	2.22782
48.38	2.20084
48.39	2.19328
48.4	2.18308
48.41	2.164
48.42	2.20117
48.43	2.19459
48.44	2.19196
48.45	2.18012
48.46	2.18505
48.47	2.20709
48.48	2.17321
48.49	2.20413
48.5	2.22848
48.51	2.17782
48.52	2.18867
48.53	2.18275
48.54	2.19163
48.55	2.20018
48.56	2.20216
48.57	2.20808
48.58	2.21269
48.59	2.189
48.6	2.17255
48.61	2.1742
48.62	2.20216
48.63	2.22716
48.64	2.20051
48.65	2.20018
48.66	2.19229
48.67	2.20972
48.68	2.21762
48.69	2.20972
48.7	2.20742
48.71	2.20479
48.72	2.22617
48.73	2.22058
48.74	2.18439
48.75	2.20808
48.76	2.20216
48.77	2.18801
48.78	2.18538
48.79	2.23637
48.8	2.20808
48.81	2.19426
48.82	2.20018
48.83	2.18538
48.84	2.19591
48.85	2.20413
48.86	2.19591
48.87	2.20216
48.88	2.21104
48.89	2.22584
48.9	2.2163
48.91	2.19953
48.92	2.22058
48.93	2.19328
48.94	2.21565
48.95	2.20479
48.96	2.2219
48.97	2.20907
48.98	2.18999
48.99	2.19064
49	2.19426
49.01	2.2015
49.02	2.20742
49.03	2.21532
49.04	2.20742
49.05	2.20874
49.06	2.21367
49.07	2.18703
49.08	2.19393
49.09	2.19657
49.1	2.21137
49.11	2.19624
49.12	2.21038
49.13	2.23834
49.14	2.22486
49.15	2.21137
49.16	2.18801
49.17	2.16071
49.18	2.19196
49.19	2.1867
49.2	2.2015
49.21	2.21104
49.22	2.21597
49.23	2.2117
49.24	2.17913
49.25	2.16696
49.26	2.18505
49.27	2.20512
49.28	2.20874
49.29	2.20315
49.3	2.21663
49.31	2.21104
49.32	2.18078
49.33	2.18472
49.34	2.1969
49.35	2.21861
49.36	2.20479
49.37	2.18374
49.38	2.21137
49.39	2.20545
49.4	2.2117
49.41	2.21301
49.42	2.21203
49.43	2.19361
49.44	2.17946
49.45	2.1788
49.46	2.20084
49.47	2.22683
49.48	2.2015
49.49	2.1913
49.5	2.23111
49.51	2.22058
49.52	2.1992
49.53	2.1742
49.54	2.21038
49.55	2.21433
49.56	2.16959
49.57	2.18834
49.58	2.19591
49.59	2.19722
49.6	2.19492
49.61	2.17387
49.62	2.20282
49.63	2.21104
49.64	2.19558
49.65	2.1913
49.66	2.22486
49.67	2.21301
49.68	2.18538
49.69	2.19196
49.7	2.19591
49.71	2.2242
49.72	2.21992
49.73	2.23012
49.74	2.2038
49.75	2.21795
49.76	2.214
49.77	2.21729
49.78	2.2094
49.79	2.1992
49.8	2.18538
49.81	2.18209
49.82	2.2038
49.83	2.19163
49.84	2.18867
49.85	2.18768
49.86	2.18834
49.87	2.21795
49.88	2.18801
49.89	2.18505
49.9	2.19262
49.91	2.20051
49.92	2.2117
49.93	2.214
49.94	2.1992
49.95	2.21038
49.96	2.19558
49.97	2.20578
49.98	2.21959
49.99	2.20545
50	2.21828
