"BIO-KINE ASCII FILE"
"_COMMENT"	"MOS-500 Spectrometer"
"_COMMENT"	"Kinetics measurement"
"_COMMENT"	"Y Unit : Volt,  X Unit : s"
"_COMMENT"	"Excitation wavelength : 380 nm"
"_COMMENT"	"Fentes bandwidth =  1 nm"
"_COMMENT"	"HV= 850V"
"_COMMENT"	"Timebase  1 =  .01 s   3001 pts"
"_SFM"	"SFM-400 /S  Advanced mode"
"_SFM"	"Ratio : S1: 2.5, S2: 0, S3: 0, S4: 1"
"_SFM"	"Content : S1: , S2: , S3: , S4:"
"_SFM"	"Concentration : S1: , S2: , S3: , S4:"
"_SFM"	"Total volume : 209 µl  Flow : 3.5 mL/s"
"_SFM"	"Acquisition start :  10 ms before stop"
"_SFM"	"cuve=FC-15, s1=10 ml , s2=10 ml , s3=10 ml , s4=1.9 ml"
"_UNITX"	"s"
"_UNITY"	"Volt"
"_DELTAX"	0
"_DATA"
1e-300	4.81244
0.01	4.97198
0.02	5.04139
0.03	5.08054
0.04	5.10258
0.05	5.11541
0.06	5.11377
0.07	5.11442
0.08	5.13219
0.09	5.10357
0.1	5.1391
0.11	5.12462
0.12	5.13646
0.13	5.13482
0.14	5.1437
0.15	5.11409
0.16	5.13646
0.17	5.13153
0.18	5.11212
0.19	5.12166
0.2	5.11442
0.21	5.12265
0.22	5.09074
0.23	5.07133
0.24	5.10719
0.25	5.09699
0.26	5.09074
0.27	5.08482
0.28	5.09304
0.29	5.07561
0.3	5.07626
0.31	5.07988
0.32	5.07495
0.33	5.09008
0.34	5.09205
0.35	5.08547
0.36	5.07067
0.37	5.07495
0.38	5.06442
0.39	5.0664
0.4	5.07528
0.41	5.06508
0.42	5.06212
0.43	5.05982
0.44	5.05126
0.45	5.05192
0.46	5.04107
0.47	5.04107
0.48	5.03383
0.49	5.04929
0.5	5.03547
0.51	5.02955
0.52	5.05949
0.53	5.03679
0.54	5.04008
0.55	5.05653
0.56	5.04436
0.57	5.02232
0.58	5.02659
0.59	5.00324
0.6	5.00521
0.61	5.00356
0.62	5.00192
0.63	5.02034
0.64	5.02593
0.65	4.97823
0.66	4.99172
0.67	5.00028
0.68	5.01475
0.69	4.98514
0.7	4.96902
0.71	4.95192
0.72	4.98843
0.73	4.97725
0.74	4.95751
0.75	4.97034
0.76	4.96837
0.77	4.95981
0.78	4.94665
0.79	4.94863
0.8	4.96442
0.81	4.95718
0.82	4.96343
0.83	4.95356
0.84	4.96573
0.85	4.93744
0.86	4.9381
0.87	4.92889
0.88	4.93942
0.89	4.93317
0.9	4.93119
0.91	4.93119
0.92	4.90817
0.93	4.91968
0.94	4.91836
0.95	4.90718
0.96	4.89007
0.97	4.88415
0.98	4.89139
0.99	4.90093
1	4.896
1.01	4.89567
1.02	4.88284
1.03	4.88119
1.04	4.89073
1.05	4.91211
1.06	4.88053
1.07	4.86869
1.08	4.88317
1.09	4.87363
1.1	4.87165
1.11	4.87001
1.12	4.8552
1.13	4.8552
1.14	4.8631
1.15	4.87955
1.16	4.83876
1.17	4.85849
1.18	4.85389
1.19	4.85323
1.2	4.83974
1.21	4.84139
1.22	4.84567
1.23	4.82362
1.24	4.82362
1.25	4.8177
1.26	4.80553
1.27	4.82428
1.28	4.81507
1.29	4.82362
1.3	4.81178
1.31	4.80487
1.32	4.81968
1.33	4.8302
1.34	4.81277
1.35	4.81014
1.36	4.82099
1.37	4.79402
1.38	4.78908
1.39	4.79501
1.4	4.78481
1.41	4.77527
1.42	4.77724
1.43	4.79073
1.44	4.78415
1.45	4.75586
1.46	4.75421
1.47	4.76211
1.48	4.74895
1.49	4.75619
1.5	4.77099
1.51	4.77362
1.52	4.75257
1.53	4.73645
1.54	4.73678
1.55	4.74303
1.56	4.7279
1.57	4.73514
1.58	4.70619
1.59	4.72494
1.6	4.72889
1.61	4.71178
1.62	4.74796
1.63	4.72954
1.64	4.73283
1.65	4.71408
1.66	4.72263
1.67	4.70125
1.68	4.68612
1.69	4.70882
1.7	4.71046
1.71	4.72527
1.72	4.71935
1.73	4.70816
1.74	4.70981
1.75	4.68579
1.76	4.68645
1.77	4.67658
1.78	4.67
1.79	4.66276
1.8	4.6825
1.81	4.66869
1.82	4.66145
1.83	4.65454
1.84	4.65948
1.85	4.66671
1.86	4.63941
1.87	4.6723
1.88	4.66605
1.89	4.64994
1.9	4.64763
1.91	4.65553
1.92	4.65882
1.93	4.66342
1.94	4.63809
1.95	4.64204
1.96	4.64072
1.97	4.62625
1.98	4.61474
1.99	4.62329
2	4.63316
2.01	4.64138
2.02	4.61737
2.03	4.60882
2.04	4.62921
2.05	4.60322
2.06	4.6052
2.07	4.60125
2.08	4.60849
2.09	4.59763
2.1	4.60289
2.11	4.61408
2.12	4.60882
2.13	4.60487
2.14	4.61013
2.15	4.59007
2.16	4.60388
2.17	4.60618
2.18	4.57164
2.19	4.5723
2.2	4.58678
2.21	4.58414
2.22	4.55849
2.23	4.55289
2.24	4.57362
2.25	4.57428
2.26	4.57164
2.27	4.56079
2.28	4.56441
2.29	4.55454
2.3	4.55158
2.31	4.54006
2.32	4.52658
2.33	4.52296
2.34	4.53513
2.35	4.51934
2.36	4.54566
2.37	4.54796
2.38	4.53513
2.39	4.52098
2.4	4.53842
2.41	4.51506
2.42	4.53546
2.43	4.52559
2.44	4.50026
2.45	4.4996
2.46	4.52921
2.47	4.53447
2.48	4.4996
2.49	4.49829
2.5	4.50585
2.51	4.50552
2.52	4.50881
2.53	4.48085
2.54	4.48217
2.55	4.4973
2.56	4.50947
2.57	4.51243
2.58	4.50651
2.59	4.48579
2.6	4.46901
2.61	4.46671
2.62	4.47098
2.63	4.47361
2.64	4.48217
2.65	4.47657
2.66	4.4575
2.67	4.45552
2.68	4.46309
2.69	4.47329
2.7	4.45618
2.71	4.44171
2.72	4.45026
2.73	4.45486
2.74	4.45453
2.75	4.44171
2.76	4.41835
2.77	4.43184
2.78	4.42295
2.79	4.43217
2.8	4.44467
2.81	4.41605
2.82	4.41868
2.83	4.43348
2.84	4.43611
2.85	4.41045
2.86	4.4223
2.87	4.42657
2.88	4.37657
2.89	4.41309
2.9	4.41901
2.91	4.38611
2.92	4.38776
2.93	4.41013
2.94	4.39434
2.95	4.36966
2.96	4.37756
2.97	4.38151
2.98	4.38414
2.99	4.38973
3	4.39105
3.01	4.38677
3.02	4.37197
3.03	4.38545
3.04	4.38578
3.05	4.37262
3.06	4.36802
3.07	4.36045
3.08	4.34598
3.09	4.35025
3.1	4.36308
3.11	4.34927
3.12	4.3496
3.13	4.36901
3.14	4.34302
3.15	4.34697
3.16	4.35025
3.17	4.32821
3.18	4.35519
3.19	4.34137
3.2	4.33249
3.21	4.31604
3.22	4.32821
3.23	4.32493
3.24	4.33743
3.25	4.32229
3.26	4.32131
3.27	4.31769
3.28	4.3246
3.29	4.30288
3.3	4.31111
3.31	4.30453
3.32	4.31999
3.33	4.31539
3.34	4.32262
3.35	4.31835
3.36	4.30519
3.37	4.29269
3.38	4.29927
3.39	4.28874
3.4	4.28084
3.41	4.28644
3.42	4.29269
3.43	4.27854
3.44	4.29038
3.45	4.28775
3.46	4.27953
3.47	4.27163
3.48	4.27163
3.49	4.2815
3.5	4.28282
3.51	4.2769
3.52	4.25223
3.53	4.25913
3.54	4.26867
3.55	4.29038
3.56	4.28348
3.57	4.26538
3.58	4.24828
3.59	4.24269
3.6	4.24762
3.61	4.25782
3.62	4.25453
3.63	4.24301
3.64	4.23775
3.65	4.21834
3.66	4.22328
3.67	4.22722
3.68	4.24038
3.69	4.22788
3.7	4.22788
3.71	4.23545
3.72	4.23545
3.73	4.22163
3.74	4.20782
3.75	4.20617
3.76	4.20091
3.77	4.20946
3.78	4.23282
3.79	4.22262
3.8	4.2065
3.81	4.1963
3.82	4.19696
3.83	4.22492
3.84	4.21209
3.85	4.1917
3.86	4.19597
3.87	4.19564
3.88	4.19499
3.89	4.19564
3.9	4.1792
3.91	4.19564
3.92	4.18216
3.93	4.1861
3.94	4.19301
3.95	4.18249
3.96	4.18216
3.97	4.16867
3.98	4.18545
3.99	4.16867
4	4.18775
4.01	4.16801
4.02	4.15354
4.03	4.16966
4.04	4.17624
4.05	4.16933
4.06	4.16308
4.07	4.15222
4.08	4.15716
4.09	4.1463
4.1	4.11735
4.11	4.15518
4.12	4.1736
4.13	4.14235
4.14	4.15058
4.15	4.15518
4.16	4.15617
4.17	4.14137
4.18	4.13676
4.19	4.13314
4.2	4.12788
4.21	4.13084
4.22	4.09663
4.23	4.12591
4.24	4.14038
4.25	4.12689
4.26	4.13512
4.27	4.1542
4.28	4.12689
4.29	4.1292
4.3	4.12031
4.31	4.10452
4.32	4.11341
4.33	4.08511
4.34	4.09104
4.35	4.09071
4.36	4.10814
4.37	4.10354
4.38	4.11209
4.39	4.10288
4.4	4.08906
4.41	4.08051
4.42	4.0815
4.43	4.0838
4.44	4.10452
4.45	4.09367
4.46	4.08775
4.47	4.0838
4.48	4.08544
4.49	4.08446
4.5	4.0713
4.51	4.07722
4.52	4.07558
4.53	4.07689
4.54	4.0565
4.55	4.04893
4.56	4.07722
4.57	4.07294
4.58	4.04893
4.59	4.05025
4.6	4.05913
4.61	4.06604
4.62	4.0486
4.63	4.04235
4.64	4.04169
4.65	4.05518
4.66	4.0588
4.67	4.05386
4.68	4.04992
4.69	4.03709
4.7	4.01735
4.71	4.02952
4.72	4.04531
4.73	4.04432
4.74	4.03709
4.75	4.0338
4.76	4.03742
4.77	4.02952
4.78	4.00452
4.79	4.01636
4.8	4.00189
4.81	4.02031
4.82	4.01538
4.83	4.01834
4.84	4.01143
4.85	4.01209
4.86	4.02985
4.87	3.99827
4.88	3.99564
4.89	4.01011
4.9	4.01373
4.91	4.01373
4.92	4.00222
4.93	3.99334
4.94	3.97557
4.95	3.98215
4.96	3.98544
4.97	4.01176
4.98	3.98116
4.99	3.99005
5	4.00847
5.01	3.97787
5.02	3.97162
5.03	3.99399
5.04	3.9963
5.05	3.98248
5.06	3.97064
5.07	4.00485
5.08	3.99366
5.09	3.9759
5.1	3.97459
5.11	3.9838
5.12	3.96603
5.13	3.98807
5.14	3.99893
5.15	3.96143
5.16	3.96866
5.17	3.96044
5.18	3.95518
5.19	3.94432
5.2	3.93347
5.21	3.93577
5.22	3.92524
5.23	3.93906
5.24	3.95551
5.25	3.94827
5.26	3.94597
5.27	3.9532
5.28	3.93675
5.29	3.95814
5.3	3.92294
5.31	3.9259
5.32	3.94728
5.33	3.9486
5.34	3.94597
5.35	3.9305
5.36	3.93807
5.37	3.9509
5.38	3.93248
5.39	3.92919
5.4	3.91998
5.41	3.93972
5.42	3.92425
5.43	3.91537
5.44	3.92393
5.45	3.93412
5.46	3.91274
5.47	3.91735
5.48	3.91077
5.49	3.92096
5.5	3.93116
5.51	3.92393
5.52	3.91208
5.53	3.90715
5.54	3.90386
5.55	3.89465
5.56	3.89465
5.57	3.89827
5.58	3.90419
5.59	3.88642
5.6	3.89465
5.61	3.88774
5.62	3.87359
5.63	3.88116
5.64	3.90254
5.65	3.8782
5.66	3.87228
5.67	3.868
5.68	3.86537
5.69	3.85484
5.7	3.86274
5.71	3.87327
5.72	3.87952
5.73	3.89037
5.74	3.88642
5.75	3.8657
5.76	3.86702
5.77	3.86373
5.78	3.87063
5.79	3.83905
5.8	3.86866
5.81	3.88313
5.82	3.84827
5.83	3.85419
5.84	3.84563
5.85	3.85155
5.86	3.85123
5.87	3.85386
5.88	3.86702
5.89	3.83807
5.9	3.83938
5.91	3.82787
5.92	3.84925
5.93	3.8305
5.94	3.818
5.95	3.82129
5.96	3.83576
5.97	3.83412
5.98	3.84037
5.99	3.84399
6	3.82886
6.01	3.80813
6.02	3.81636
6.03	3.81701
6.04	3.81504
6.05	3.82655
6.06	3.82853
6.07	3.81274
6.08	3.81405
6.09	3.81274
6.1	3.80353
6.11	3.81438
6.12	3.83741
6.13	3.83774
6.14	3.81241
6.15	3.81767
6.16	3.80846
6.17	3.81076
6.18	3.80484
6.19	3.80451
6.2	3.79793
6.21	3.81011
6.22	3.81175
6.23	3.80484
6.24	3.82688
6.25	3.81208
6.26	3.81405
6.27	3.80451
6.28	3.80122
6.29	3.80254
6.3	3.79333
6.31	3.79925
6.32	3.79695
6.33	3.77951
6.34	3.77491
6.35	3.79201
6.36	3.79136
6.37	3.79103
6.38	3.8009
6.39	3.79563
6.4	3.76635
6.41	3.7828
6.42	3.78247
6.43	3.76997
6.44	3.76833
6.45	3.77458
6.46	3.78839
6.47	3.77787
6.48	3.75912
6.49	3.75024
6.5	3.75517
6.51	3.75122
6.52	3.76076
6.53	3.75813
6.54	3.77425
6.55	3.77129
6.56	3.77853
6.57	3.75583
6.58	3.7555
6.59	3.76208
6.6	3.75583
6.61	3.76175
6.62	3.75385
6.63	3.73872
6.64	3.74168
6.65	3.76997
6.66	3.74728
6.67	3.74662
6.68	3.74234
6.69	3.73609
6.7	3.7555
6.71	3.72425
6.72	3.7328
6.73	3.75747
6.74	3.72589
6.75	3.71602
6.76	3.73905
6.77	3.72721
6.78	3.74267
6.79	3.74629
6.8	3.73149
6.81	3.7351
6.82	3.70616
6.83	3.71833
6.84	3.74267
6.85	3.7305
6.86	3.72096
6.87	3.72425
6.88	3.72425
6.89	3.70517
6.9	3.7203
6.91	3.73379
6.92	3.71635
6.93	3.71175
6.94	3.70879
6.95	3.70714
6.96	3.69662
6.97	3.67655
6.98	3.72359
6.99	3.70616
7	3.70319
7.01	3.70977
7.02	3.69365
7.03	3.70352
7.04	3.70418
7.05	3.70056
7.06	3.69563
7.07	3.67786
7.08	3.66767
7.09	3.69958
7.1	3.70747
7.11	3.69958
7.12	3.67326
7.13	3.68214
7.14	3.67392
7.15	3.69004
7.16	3.67556
7.17	3.68313
7.18	3.66536
7.19	3.66865
7.2	3.67227
7.21	3.67819
7.22	3.67063
7.23	3.67819
7.24	3.67392
7.25	3.69267
7.26	3.67688
7.27	3.67063
7.28	3.67984
7.29	3.67754
7.3	3.70089
7.31	3.68444
7.32	3.66767
7.33	3.68576
7.34	3.66471
7.35	3.66668
7.36	3.66306
7.37	3.68313
7.38	3.67392
7.39	3.65681
7.4	3.67425
7.41	3.66767
7.42	3.65451
7.43	3.66833
7.44	3.65681
7.45	3.64168
7.46	3.66536
7.47	3.66865
7.48	3.6476
7.49	3.66076
7.5	3.66668
7.51	3.66207
7.52	3.67096
7.53	3.65155
7.54	3.65648
7.55	3.6351
7.56	3.6305
7.57	3.63148
7.58	3.63609
7.59	3.65023
7.6	3.64596
7.61	3.62392
7.62	3.64661
7.63	3.63115
7.64	3.64596
7.65	3.62885
7.66	3.64102
7.67	3.6328
7.68	3.63839
7.69	3.62655
7.7	3.63707
7.71	3.62556
7.72	3.64398
7.73	3.63444
7.74	3.61997
7.75	3.63642
7.76	3.61668
7.77	3.62392
7.78	3.64201
7.79	3.62721
7.8	3.62523
7.81	3.61734
7.82	3.62688
7.83	3.62063
7.84	3.61964
7.85	3.61536
7.86	3.59595
7.87	3.58938
7.88	3.62951
7.89	3.62622
7.9	3.59924
7.91	3.59201
7.92	3.61142
7.93	3.62128
7.94	3.60517
7.95	3.59299
7.96	3.61043
7.97	3.62457
7.98	3.59431
7.99	3.5953
8	3.59069
8.01	3.59727
8.02	3.59793
8.03	3.59102
8.04	3.60813
8.05	3.59727
8.06	3.60023
8.07	3.60517
8.08	3.60418
8.09	3.60451
8.1	3.60023
8.11	3.59826
8.12	3.5953
8.13	3.59595
8.14	3.57951
8.15	3.59694
8.16	3.58806
8.17	3.58247
8.18	3.58477
8.19	3.57424
8.2	3.55648
8.21	3.56405
8.22	3.56108
8.23	3.5772
8.24	3.59168
8.25	3.57457
8.26	3.57556
8.27	3.56931
8.28	3.57687
8.29	3.58181
8.3	3.58806
8.31	3.58181
8.32	3.57095
8.33	3.5703
8.34	3.56832
8.35	3.57128
8.36	3.56865
8.37	3.56602
8.38	3.56997
8.39	3.5522
8.4	3.56207
8.41	3.5522
8.42	3.56141
8.43	3.56141
8.44	3.55878
8.45	3.55385
8.46	3.56174
8.47	3.55944
8.48	3.55286
8.49	3.56372
8.5	3.55845
8.51	3.56306
8.52	3.55253
8.53	3.53082
8.54	3.54727
8.55	3.5578
8.56	3.56174
8.57	3.5499
8.58	3.54102
8.59	3.53872
8.6	3.56569
8.61	3.56076
8.62	3.55089
8.63	3.54826
8.64	3.54201
8.65	3.54069
8.66	3.54891
8.67	3.54431
8.68	3.56306
8.69	3.54957
8.7	3.57523
8.71	3.54661
8.72	3.52523
8.73	3.5249
8.74	3.53214
8.75	3.51799
8.76	3.52424
8.77	3.54299
8.78	3.53148
8.79	3.52029
8.8	3.55155
8.81	3.54201
8.82	3.51108
8.83	3.54332
8.84	3.53576
8.85	3.54003
8.86	3.53806
8.87	3.54332
8.88	3.51043
8.89	3.55319
8.9	3.54003
8.91	3.52062
8.92	3.51865
8.93	3.53444
8.94	3.52227
8.95	3.52325
8.96	3.53016
8.97	3.52424
8.98	3.50418
8.99	3.48477
9	3.50089
9.01	3.51931
9.02	3.52128
9.03	3.51437
9.04	3.50779
9.05	3.52622
9.06	3.50319
9.07	3.50812
9.08	3.53049
9.09	3.50779
9.1	3.52424
9.11	3.50056
9.12	3.48641
9.13	3.50845
9.14	3.51964
9.15	3.51668
9.16	3.52918
9.17	3.52589
9.18	3.49891
9.19	3.50385
9.2	3.5101
9.21	3.50089
9.22	3.51569
9.23	3.5022
9.24	3.48839
9.25	3.48345
9.26	3.50878
9.27	3.50714
9.28	3.49431
9.29	3.50746
9.3	3.5124
9.31	3.50483
9.32	3.50944
9.33	3.50746
9.34	3.492
9.35	3.48871
9.36	3.49628
9.37	3.4897
9.38	3.49496
9.39	3.50746
9.4	3.49299
9.41	3.50089
9.42	3.49135
9.43	3.49464
9.44	3.49233
9.45	3.48674
9.46	3.48937
9.47	3.47753
9.48	3.47983
9.49	3.49365
9.5	3.47687
9.51	3.45648
9.52	3.48575
9.53	3.4749
9.54	3.48608
9.55	3.47885
9.56	3.48707
9.57	3.49233
9.58	3.48213
9.59	3.46931
9.6	3.45516
9.61	3.46931
9.62	3.47753
9.63	3.47556
9.64	3.45286
9.65	3.47128
9.66	3.46898
9.67	3.46865
9.68	3.46832
9.69	3.46273
9.7	3.46141
9.71	3.46108
9.72	3.49562
9.73	3.4795
9.74	3.47161
9.75	3.46075
9.76	3.47556
9.77	3.45088
9.78	3.45944
9.79	3.47391
9.8	3.46306
9.81	3.45384
9.82	3.44036
9.83	3.44266
9.84	3.44529
9.85	3.47654
9.86	3.48213
9.87	3.46042
9.88	3.45384
9.89	3.44924
9.9	3.46042
9.91	3.44463
9.92	3.45878
9.93	3.46009
9.94	3.45483
9.95	3.45681
9.96	3.442
9.97	3.42062
9.98	3.4397
9.99	3.4545
10	3.44134
10.01	3.44924
10.02	3.44463
10.03	3.4499
10.04	3.46174
10.05	3.46766
10.06	3.46569
10.07	3.43871
10.08	3.42424
10.09	3.45055
10.1	3.46306
10.11	3.44661
10.12	3.45253
10.13	3.45088
10.14	3.43378
10.15	3.44398
10.16	3.45055
10.17	3.43246
10.18	3.42983
10.19	3.44924
10.2	3.44398
10.21	3.41634
10.22	3.43707
10.23	3.43476
10.24	3.43082
10.25	3.43246
10.26	3.42753
10.27	3.44529
10.28	3.44628
10.29	3.43411
10.3	3.42194
10.31	3.42391
10.32	3.43805
10.33	3.43805
10.34	3.43213
10.35	3.45516
10.36	3.43575
10.37	3.42851
10.38	3.42095
10.39	3.44398
10.4	3.44694
10.41	3.44299
10.42	3.45615
10.43	3.44036
10.44	3.42457
10.45	3.41832
10.46	3.44102
10.47	3.42128
10.48	3.42884
10.49	3.42917
10.5	3.40615
10.51	3.40713
10.52	3.40417
10.53	3.39858
10.54	3.41832
10.55	3.4147
10.56	3.40417
10.57	3.40878
10.58	3.4124
10.59	3.41733
10.6	3.40088
10.61	3.40812
10.62	3.40351
10.63	3.41108
10.64	3.41371
10.65	3.4193
10.66	3.42523
10.67	3.42621
10.68	3.42588
10.69	3.41634
10.7	3.41075
10.71	3.41569
10.72	3.40746
10.73	3.40976
10.74	3.41141
10.75	3.40417
10.76	3.41338
10.77	3.42226
10.78	3.39167
10.79	3.39332
10.8	3.4147
10.81	3.40286
10.82	3.38674
10.83	3.40615
10.84	3.40318
10.85	3.37555
10.86	3.37917
10.87	3.40253
10.88	3.39266
10.89	3.41075
10.9	3.38443
10.91	3.39365
10.92	3.39759
10.93	3.40779
10.94	3.41799
10.95	3.40911
10.96	3.39595
10.97	3.38509
10.98	3.39496
10.99	3.41371
11	3.41404
11.01	3.40746
11.02	3.39167
11.03	3.392
11.04	3.37489
11.05	3.39266
11.06	3.3999
11.07	3.39529
11.08	3.3897
11.09	3.38345
11.1	3.38937
11.11	3.38082
11.12	3.39529
11.13	3.3897
11.14	3.37983
11.15	3.38707
11.16	3.38345
11.17	3.39397
11.18	3.38246
11.19	3.39134
11.2	3.39003
11.21	3.3693
11.22	3.34858
11.23	3.37917
11.24	3.36799
11.25	3.37193
11.26	3.38147
11.27	3.36799
11.28	3.38411
11.29	3.38082
11.3	3.36799
11.31	3.36799
11.32	3.38016
11.33	3.38937
11.34	3.36832
11.35	3.37621
11.36	3.38345
11.37	3.37753
11.38	3.37917
11.39	3.36009
11.4	3.36404
11.41	3.36832
11.42	3.37489
11.43	3.37391
11.44	3.37358
11.45	3.38838
11.46	3.36799
11.47	3.33904
11.48	3.3568
11.49	3.36371
11.5	3.35845
11.51	3.37555
11.52	3.367
11.53	3.35516
11.54	3.34233
11.55	3.35549
11.56	3.37095
11.57	3.36338
11.58	3.37588
11.59	3.36864
11.6	3.35088
11.61	3.38147
11.62	3.37522
11.63	3.36108
11.64	3.36272
11.65	3.33772
11.66	3.35943
11.67	3.3522
11.68	3.3568
11.69	3.36963
11.7	3.37786
11.71	3.35878
11.72	3.36174
11.73	3.35187
11.74	3.35713
11.75	3.35417
11.76	3.36305
11.77	3.35253
11.78	3.36239
11.79	3.36996
11.8	3.37555
11.81	3.35845
11.82	3.36634
11.83	3.34956
11.84	3.35187
11.85	3.36108
11.86	3.37062
11.87	3.3545
11.88	3.3772
11.89	3.35351
11.9	3.35417
11.91	3.35253
11.92	3.35088
11.93	3.36141
11.94	3.35779
11.95	3.34364
11.96	3.3443
11.97	3.32489
11.98	3.32752
11.99	3.33706
12	3.36535
12.01	3.37062
12.02	3.33904
12.03	3.34299
12.04	3.33016
12.05	3.35878
12.06	3.34628
12.07	3.342
12.08	3.34825
12.09	3.31831
12.1	3.32654
12.11	3.32621
12.12	3.34101
12.13	3.35088
12.14	3.34134
12.15	3.33641
12.16	3.34956
12.17	3.34956
12.18	3.3545
12.19	3.33016
12.2	3.33476
12.21	3.34858
12.22	3.33904
12.23	3.33476
12.24	3.32358
12.25	3.32588
12.26	3.32424
12.27	3.3318
12.28	3.34496
12.29	3.34299
12.3	3.31864
12.31	3.31371
12.32	3.34825
12.33	3.35088
12.34	3.3397
12.35	3.33805
12.36	3.32555
12.37	3.33213
12.38	3.33016
12.39	3.32358
12.4	3.33937
12.41	3.32588
12.42	3.32424
12.43	3.32917
12.44	3.34266
12.45	3.3397
12.46	3.32029
12.47	3.33279
12.48	3.33213
12.49	3.33674
12.5	3.32884
12.51	3.33937
12.52	3.31963
12.53	3.3318
12.54	3.32424
12.55	3.33937
12.56	3.32489
12.57	3.33706
12.58	3.32489
12.59	3.33345
12.6	3.33608
12.61	3.32424
12.62	3.32522
12.63	3.3341
12.64	3.36338
12.65	3.32095
12.66	3.3045
12.67	3.33739
12.68	3.33871
12.69	3.31437
12.7	3.34068
12.71	3.33772
12.72	3.32983
12.73	3.32555
12.74	3.31831
12.75	3.31141
12.76	3.31239
12.77	3.32127
12.78	3.30483
12.79	3.32292
12.8	3.32785
12.81	3.30483
12.82	3.32193
12.83	3.32489
12.84	3.33443
12.85	3.32095
12.86	3.31502
12.87	3.33016
12.88	3.32654
12.89	3.31338
12.9	3.32095
12.91	3.32325
12.92	3.31601
12.93	3.30548
12.94	3.31206
12.95	3.30746
12.96	3.31239
12.97	3.31042
12.98	3.32062
12.99	3.33377
13	3.32095
13.01	3.31141
13.02	3.31272
13.03	3.31667
13.04	3.31042
13.05	3.31141
13.06	3.29298
13.07	3.30943
13.08	3.3091
13.09	3.30746
13.1	3.30845
13.11	3.317
13.12	3.31206
13.13	3.32522
13.14	3.30614
13.15	3.30483
13.16	3.30055
13.17	3.30318
13.18	3.32588
13.19	3.31305
13.2	3.31075
13.21	3.30516
13.22	3.30548
13.23	3.29562
13.24	3.3147
13.25	3.31042
13.26	3.31634
13.27	3.29397
13.28	3.30384
13.29	3.3147
13.3	3.30713
13.31	3.29923
13.32	3.30417
13.33	3.30516
13.34	3.31338
13.35	3.30121
13.36	3.28147
13.37	3.28476
13.38	3.29627
13.39	3.31371
13.4	3.32424
13.41	3.29693
13.42	3.29594
13.43	3.29956
13.44	3.29167
13.45	3.29035
13.46	3.29726
13.47	3.29923
13.48	3.31634
13.49	3.30384
13.5	3.28838
13.51	3.30779
13.52	3.29923
13.53	3.31108
13.54	3.31042
13.55	3.30417
13.56	3.30746
13.57	3.28213
13.58	3.30483
13.59	3.29594
13.6	3.30483
13.61	3.29858
13.62	3.29167
13.63	3.30581
13.64	3.2864
13.65	3.28673
13.66	3.30384
13.67	3.28904
13.68	3.29101
13.69	3.30713
13.7	3.267
13.71	3.28542
13.72	3.30318
13.73	3.31239
13.74	3.30154
13.75	3.30713
13.76	3.29989
13.77	3.29035
13.78	3.30516
13.79	3.30055
13.8	3.29923
13.81	3.28937
13.82	3.29233
13.83	3.27983
13.84	3.30121
13.85	3.31173
13.86	3.30713
13.87	3.30252
13.88	3.29233
13.89	3.28147
13.9	3.2864
13.91	3.29858
13.92	3.29792
13.93	3.2864
13.94	3.29693
13.95	3.2864
13.96	3.27325
13.97	3.28147
13.98	3.27029
13.99	3.28443
14	3.30647
14.01	3.29101
14.02	3.29266
14.03	3.27851
14.04	3.28673
14.05	3.27851
14.06	3.28542
14.07	3.26535
14.08	3.27226
14.09	3.28344
14.1	3.28904
14.11	3.27193
14.12	3.27423
14.13	3.29364
14.14	3.28608
14.15	3.28838
14.16	3.30581
14.17	3.28937
14.18	3.28805
14.19	3.28542
14.2	3.28575
14.21	3.26535
14.22	3.2693
14.23	3.26469
14.24	3.27522
14.25	3.29792
14.26	3.28147
14.27	3.26897
14.28	3.26338
14.29	3.26436
14.3	3.27983
14.31	3.2818
14.32	3.27555
14.33	3.27785
14.34	3.27621
14.35	3.27884
14.36	3.25811
14.37	3.25976
14.38	3.27785
14.39	3.28081
14.4	3.25877
14.41	3.28344
14.42	3.28509
14.43	3.26108
14.44	3.267
14.45	3.27588
14.46	3.26502
14.47	3.26502
14.48	3.28969
14.49	3.29101
14.5	3.27621
14.51	3.27588
14.52	3.26667
14.53	3.27292
14.54	3.2591
14.55	3.25285
14.56	3.25384
14.57	3.25943
14.58	3.27983
14.59	3.28871
14.6	3.27259
14.61	3.25121
14.62	3.26765
14.63	3.26798
14.64	3.26864
14.65	3.2614
14.66	3.25811
14.67	3.26667
14.68	3.27358
14.69	3.27621
14.7	3.27621
14.71	3.25154
14.72	3.26206
14.73	3.26996
14.74	3.267
14.75	3.2716
14.76	3.24529
14.77	3.25943
14.78	3.25515
14.79	3.26206
14.8	3.25844
14.81	3.2716
14.82	3.27884
14.83	3.27654
14.84	3.26502
14.85	3.27325
14.86	3.25219
14.87	3.25844
14.88	3.26733
14.89	3.26765
14.9	3.25022
14.91	3.2466
14.92	3.2966
14.93	3.27654
14.94	3.25976
14.95	3.26075
14.96	3.25877
14.97	3.26338
14.98	3.26404
14.99	3.25186
15	3.24825
15.01	3.27226
15.02	3.27358
15.03	3.26173
15.04	3.27325
15.05	3.27292
15.06	3.26239
15.07	3.25285
15.08	3.28279
15.09	3.25252
15.1	3.25121
15.11	3.26765
15.12	3.2489
15.13	3.25713
15.14	3.2466
15.15	3.25088
15.16	3.25976
15.17	3.27621
15.18	3.28739
15.19	3.25581
15.2	3.24364
15.21	3.24693
15.22	3.25055
15.23	3.26535
15.24	3.25515
15.25	3.2489
15.26	3.24331
15.27	3.24101
15.28	3.25351
15.29	3.24068
15.3	3.2466
15.31	3.25614
15.32	3.25417
15.33	3.242
15.34	3.25647
15.35	3.26108
15.36	3.2591
15.37	3.26502
15.38	3.25647
15.39	3.24035
15.4	3.23838
15.41	3.26305
15.42	3.26436
15.43	3.24825
15.44	3.24496
15.45	3.24956
15.46	3.24825
15.47	3.24594
15.48	3.24265
15.49	3.24364
15.5	3.25548
15.51	3.25647
15.52	3.24529
15.53	3.26272
15.54	3.26075
15.55	3.25548
15.56	3.25943
15.57	3.26996
15.58	3.25844
15.59	3.24529
15.6	3.24265
15.61	3.25779
15.62	3.24529
15.63	3.24068
15.64	3.23772
15.65	3.24594
15.66	3.24364
15.67	3.25384
15.68	3.26371
15.69	3.26239
15.7	3.25055
15.71	3.2489
15.72	3.24923
15.73	3.24561
15.74	3.24101
15.75	3.23542
15.76	3.25055
15.77	3.25186
15.78	3.24068
15.79	3.25647
15.8	3.22621
15.81	3.2545
15.82	3.26009
15.83	3.26568
15.84	3.25022
15.85	3.25022
15.86	3.23081
15.87	3.25055
15.88	3.25614
15.89	3.24397
15.9	3.25351
15.91	3.27061
15.92	3.23772
15.93	3.23114
15.94	3.23772
15.95	3.24167
15.96	3.24134
15.97	3.23048
15.98	3.25022
15.99	3.23969
16	3.21403
16.01	3.23147
16.02	3.22621
16.03	3.23311
16.04	3.23542
16.05	3.25548
16.06	3.24594
16.07	3.24068
16.08	3.22653
16.09	3.24529
16.1	3.24529
16.11	3.24331
16.12	3.25154
16.13	3.25154
16.14	3.21897
16.15	3.2364
16.16	3.22752
16.17	3.23607
16.18	3.26173
16.19	3.24397
16.2	3.23213
16.21	3.23344
16.22	3.21634
16.23	3.2193
16.24	3.23903
16.25	3.24825
16.26	3.25121
16.27	3.24331
16.28	3.23739
16.29	3.24693
16.3	3.23147
16.31	3.23015
16.32	3.24002
16.33	3.23871
16.34	3.23377
16.35	3.23246
16.36	3.24035
16.37	3.24397
16.38	3.22719
16.39	3.2239
16.4	3.23542
16.41	3.21765
16.42	3.22982
16.43	3.24331
16.44	3.23607
16.45	3.23673
16.46	3.23081
16.47	3.24923
16.48	3.24331
16.49	3.2295
16.5	3.23147
16.51	3.22686
16.52	3.23278
16.53	3.22818
16.54	3.23673
16.55	3.21338
16.56	3.24496
16.57	3.23607
16.58	3.23147
16.59	3.23739
16.6	3.2466
16.61	3.24167
16.62	3.25482
16.63	3.25285
16.64	3.23706
16.65	3.24035
16.66	3.24101
16.67	3.22061
16.68	3.24331
16.69	3.2489
16.7	3.23706
16.71	3.24594
16.72	3.23015
16.73	3.21996
16.74	3.22719
16.75	3.21765
16.76	3.23772
16.77	3.24265
16.78	3.22785
16.79	3.22884
16.8	3.2364
16.81	3.22357
16.82	3.22226
16.83	3.23443
16.84	3.22423
16.85	3.22851
16.86	3.24002
16.87	3.23147
16.88	3.22719
16.89	3.23575
16.9	3.21831
16.91	3.21963
16.92	3.23739
16.93	3.23213
16.94	3.2295
16.95	3.22818
16.96	3.21732
16.97	3.21831
16.98	3.22785
16.99	3.24035
17	3.24463
17.01	3.23344
17.02	3.2466
17.03	3.22752
17.04	3.23278
17.05	3.22522
17.06	3.23246
17.07	3.2443
17.08	3.22686
17.09	3.22621
17.1	3.21864
17.11	3.21535
17.12	3.21502
17.13	3.22686
17.14	3.21996
17.15	3.21732
17.16	3.23147
17.17	3.23377
17.18	3.20943
17.19	3.22917
17.2	3.22193
17.21	3.22851
17.22	3.21371
17.23	3.2364
17.24	3.21963
17.25	3.21699
17.26	3.20943
17.27	3.21107
17.28	3.22423
17.29	3.21765
17.3	3.23344
17.31	3.22423
17.32	3.24463
17.33	3.23772
17.34	3.22555
17.35	3.21831
17.36	3.2341
17.37	3.22292
17.38	3.21173
17.39	3.21732
17.4	3.20976
17.41	3.22094
17.42	3.22752
17.43	3.23377
17.44	3.23377
17.45	3.22226
17.46	3.2193
17.47	3.21798
17.48	3.21699
17.49	3.24529
17.5	3.24857
17.51	3.23278
17.52	3.22489
17.53	3.22423
17.54	3.2239
17.55	3.21897
17.56	3.21272
17.57	3.20351
17.58	3.2068
17.59	3.20153
17.6	3.21173
17.61	3.20055
17.62	3.21831
17.63	3.23114
17.64	3.22653
17.65	3.2239
17.66	3.22555
17.67	3.22489
17.68	3.21831
17.69	3.21436
17.7	3.2216
17.71	3.21568
17.72	3.22028
17.73	3.23311
17.74	3.2239
17.75	3.23048
17.76	3.23081
17.77	3.20877
17.78	3.20186
17.79	3.22982
17.8	3.22094
17.81	3.20647
17.82	3.21864
17.83	3.23377
17.84	3.21897
17.85	3.20186
17.86	3.22917
17.87	3.23081
17.88	3.21042
17.89	3.21371
17.9	3.21305
17.91	3.20943
17.92	3.21798
17.93	3.21338
17.94	3.22719
17.95	3.20647
17.96	3.20417
17.97	3.20877
17.98	3.19923
17.99	3.20548
18	3.20943
18.01	3.21239
18.02	3.23114
18.03	3.20318
18.04	3.22423
18.05	3.21009
18.06	3.2114
18.07	3.22851
18.08	3.22851
18.09	3.22555
18.1	3.21403
18.11	3.20614
18.12	3.20614
18.13	3.21403
18.14	3.21897
18.15	3.21009
18.16	3.20943
18.17	3.20581
18.18	3.21074
18.19	3.22094
18.2	3.22226
18.21	3.21272
18.22	3.19594
18.23	3.19792
18.24	3.20153
18.25	3.20943
18.26	3.20417
18.27	3.21371
18.28	3.21765
18.29	3.19726
18.3	3.21535
18.31	3.21469
18.32	3.21239
18.33	3.20647
18.34	3.20647
18.35	3.20055
18.36	3.19561
18.37	3.20844
18.38	3.22259
18.39	3.20351
18.4	3.19989
18.41	3.18607
18.42	3.21568
18.43	3.19298
18.44	3.20022
18.45	3.1966
18.46	3.23015
18.47	3.21634
18.48	3.19463
18.49	3.20976
18.5	3.20219
18.51	3.21732
18.52	3.19792
18.53	3.20318
18.54	3.20647
18.55	3.19824
18.56	3.21042
18.57	3.21009
18.58	3.19561
18.59	3.19495
18.6	3.19265
18.61	3.2068
18.62	3.20088
18.63	3.21042
18.64	3.21601
18.65	3.21502
18.66	3.21042
18.67	3.21601
18.68	3.21996
18.69	3.20548
18.7	3.22028
18.71	3.20647
18.72	3.20548
18.73	3.20351
18.74	3.20581
18.75	3.21403
18.76	3.21732
18.77	3.21009
18.78	3.20449
18.79	3.2114
18.8	3.21173
18.81	3.19923
18.82	3.20022
18.83	3.20943
18.84	3.20285
18.85	3.2068
18.86	3.21535
18.87	3.19726
18.88	3.19726
18.89	3.2114
18.9	3.19101
18.91	3.19956
18.92	3.2091
18.93	3.22094
18.94	3.21403
18.95	3.19561
18.96	3.19792
18.97	3.19923
18.98	3.20252
18.99	3.20548
19	3.21009
19.01	3.21305
19.02	3.22094
19.03	3.20285
19.04	3.20055
19.05	3.21765
19.06	3.20022
19.07	3.18344
19.08	3.18509
19.09	3.20943
19.1	3.19561
19.11	3.19199
19.12	3.21502
19.13	3.21568
19.14	3.22127
19.15	3.19495
19.16	3.18772
19.17	3.19923
19.18	3.19693
19.19	3.20713
19.2	3.20844
19.21	3.20384
19.22	3.21535
19.23	3.19956
19.24	3.17851
19.25	3.18706
19.26	3.19298
19.27	3.19199
19.28	3.20153
19.29	3.20482
19.3	3.20285
19.31	3.1966
19.32	3.20976
19.33	3.19397
19.34	3.1864
19.35	3.21074
19.36	3.20186
19.37	3.20088
19.38	3.21173
19.39	3.20811
19.4	3.18838
19.41	3.19989
19.42	3.21864
19.43	3.20482
19.44	3.21831
19.45	3.21305
19.46	3.21107
19.47	3.19693
19.48	3.18607
19.49	3.18541
19.5	3.1989
19.51	3.19166
19.52	3.22555
19.53	3.20417
19.54	3.19627
19.55	3.1943
19.56	3.17752
19.57	3.2012
19.58	3.21042
19.59	3.21042
19.6	3.21305
19.61	3.23015
19.62	3.19693
19.63	3.20713
19.64	3.18838
19.65	3.19265
19.66	3.20153
19.67	3.20745
19.68	3.21042
19.69	3.20318
19.7	3.21996
19.71	3.20647
19.72	3.20186
19.73	3.20055
19.74	3.18805
19.75	3.17884
19.76	3.18147
19.77	3.18476
19.78	3.19759
19.79	3.20647
19.8	3.20515
19.81	3.1943
19.82	3.20055
19.83	3.19726
19.84	3.19397
19.85	3.21272
19.86	3.21634
19.87	3.19923
19.88	3.18344
19.89	3.19726
19.9	3.18673
19.91	3.19528
19.92	3.20482
19.93	3.18509
19.94	3.18443
19.95	3.18344
19.96	3.20614
19.97	3.20515
19.98	3.18443
19.99	3.19528
20	3.19134
20.01	3.19792
20.02	3.20713
20.03	3.19298
20.04	3.21272
20.05	3.20614
20.06	3.20384
20.07	3.1887
20.08	3.18278
20.09	3.18903
20.1	3.19331
20.11	3.18509
20.12	3.18903
20.13	3.19265
20.14	3.20351
20.15	3.18673
20.16	3.19627
20.17	3.19857
20.18	3.17785
20.19	3.18838
20.2	3.19199
20.21	3.18838
20.22	3.17752
20.23	3.19035
20.24	3.19199
20.25	3.20647
20.26	3.19528
20.27	3.18706
20.28	3.17851
20.29	3.19528
20.3	3.19265
20.31	3.20022
20.32	3.19759
20.33	3.18936
20.34	3.18015
20.35	3.17752
20.36	3.18772
20.37	3.19956
20.38	3.18903
20.39	3.1943
20.4	3.2068
20.41	3.19463
20.42	3.19035
20.43	3.19759
20.44	3.18969
20.45	3.19101
20.46	3.20384
20.47	3.18443
20.48	3.18015
20.49	3.1818
20.5	3.17587
20.51	3.18673
20.52	3.18739
20.53	3.20614
20.54	3.20055
20.55	3.20976
20.56	3.17752
20.57	3.18147
20.58	3.18509
20.59	3.18772
20.6	3.19759
20.61	3.18048
20.62	3.18673
20.63	3.17785
20.64	3.19331
20.65	3.17456
20.66	3.17752
20.67	3.2068
20.68	3.20318
20.69	3.20417
20.7	3.17851
20.71	3.17456
20.72	3.17259
20.73	3.18015
20.74	3.17949
20.75	3.20318
20.76	3.19693
20.77	3.1943
20.78	3.19331
20.79	3.20449
20.8	3.19364
20.81	3.19759
20.82	3.19561
20.83	3.18344
20.84	3.19364
20.85	3.19101
20.86	3.2068
20.87	3.21338
20.88	3.19101
20.89	3.19134
20.9	3.18969
20.91	3.17916
20.92	3.17884
20.93	3.19364
20.94	3.17653
20.95	3.18147
20.96	3.19495
20.97	3.19265
20.98	3.18805
20.99	3.20449
21	3.17884
21.01	3.17949
21.02	3.18739
21.03	3.17259
21.04	3.17324
21.05	3.19331
21.06	3.18048
21.07	3.20943
21.08	3.20219
21.09	3.18278
21.1	3.18476
21.11	3.17752
21.12	3.19495
21.13	3.18706
21.14	3.17555
21.15	3.18147
21.16	3.2012
21.17	3.18443
21.18	3.17291
21.19	3.18443
21.2	3.20285
21.21	3.19693
21.22	3.19693
21.23	3.17884
21.24	3.16798
21.25	3.17818
21.26	3.1818
21.27	3.18278
21.28	3.18706
21.29	3.18213
21.3	3.18147
21.31	3.17719
21.32	3.19495
21.33	3.1887
21.34	3.17061
21.35	3.18147
21.36	3.15614
21.37	3.19068
21.38	3.17949
21.39	3.17686
21.4	3.1943
21.41	3.19101
21.42	3.19199
21.43	3.18969
21.44	3.17752
21.45	3.17851
21.46	3.19101
21.47	3.19298
21.48	3.18739
21.49	3.18311
21.5	3.17785
21.51	3.18673
21.52	3.18706
21.53	3.18772
21.54	3.17719
21.55	3.16699
21.56	3.19364
21.57	3.18245
21.58	3.19528
21.59	3.17949
21.6	3.18476
21.61	3.19199
21.62	3.18114
21.63	3.17061
21.64	3.17916
21.65	3.18673
21.66	3.17719
21.67	3.18706
21.68	3.1693
21.69	3.19199
21.7	3.18903
21.71	3.16897
21.72	3.16798
21.73	3.16765
21.74	3.16798
21.75	3.19331
21.76	3.18278
21.77	3.19232
21.78	3.18969
21.79	3.17193
21.8	3.18607
21.81	3.18311
21.82	3.16798
21.83	3.16337
21.84	3.1739
21.85	3.17357
21.86	3.17752
21.87	3.19397
21.88	3.18607
21.89	3.17555
21.9	3.16798
21.91	3.16436
21.92	3.1966
21.93	3.18969
21.94	3.17851
21.95	3.18607
21.96	3.18607
21.97	3.16107
21.98	3.1637
21.99	3.18114
22	3.17916
22.01	3.17851
22.02	3.17818
22.03	3.14298
22.04	3.16765
22.05	3.17653
22.06	3.17785
22.07	3.17916
22.08	3.17291
22.09	3.16864
22.1	3.18772
22.11	3.18739
22.12	3.18903
22.13	3.15976
22.14	3.17324
22.15	3.18772
22.16	3.20088
22.17	3.18739
22.18	3.17456
22.19	3.17949
22.2	3.17522
22.21	3.17522
22.22	3.18344
22.23	3.16765
22.24	3.18213
22.25	3.17423
22.26	3.18607
22.27	3.19199
22.28	3.17982
22.29	3.15943
22.3	3.19002
22.31	3.19594
22.32	3.17259
22.33	3.18114
22.34	3.17522
22.35	3.17653
22.36	3.18048
22.37	3.19035
22.38	3.17259
22.39	3.18772
22.4	3.19265
22.41	3.18673
22.42	3.18278
22.43	3.17291
22.44	3.17094
22.45	3.17587
22.46	3.1864
22.47	3.16601
22.48	3.16798
22.49	3.15416
22.5	3.17686
22.51	3.18245
22.52	3.18311
22.53	3.15219
22.54	3.17193
22.55	3.16897
22.56	3.16699
22.57	3.19759
22.58	3.18048
22.59	3.18739
22.6	3.18903
22.61	3.18574
22.62	3.18903
22.63	3.16272
22.64	3.16897
22.65	3.19232
22.66	3.16699
22.67	3.1739
22.68	3.18015
22.69	3.17686
22.7	3.17028
22.71	3.17818
22.72	3.18278
22.73	3.16864
22.74	3.17193
22.75	3.17653
22.76	3.18936
22.77	3.20055
22.78	3.17982
22.79	3.15943
22.8	3.16666
22.81	3.17489
22.82	3.15482
22.83	3.15844
22.84	3.16864
22.85	3.16469
22.86	3.16831
22.87	3.16897
22.88	3.18969
22.89	3.18476
22.9	3.17785
22.91	3.16831
22.92	3.1591
22.93	3.16041
22.94	3.17127
22.95	3.17423
22.96	3.17357
22.97	3.16962
22.98	3.18673
22.99	3.18048
23	3.1818
23.01	3.16634
23.02	3.16206
23.03	3.16765
23.04	3.18476
23.05	3.17259
23.06	3.17982
23.07	3.18213
23.08	3.17259
23.09	3.17259
23.1	3.17982
23.11	3.1716
23.12	3.1637
23.13	3.16831
23.14	3.18838
23.15	3.15877
23.16	3.16173
23.17	3.15647
23.18	3.16666
23.19	3.19068
23.2	3.17522
23.21	3.17193
23.22	3.15976
23.23	3.16173
23.24	3.17291
23.25	3.15482
23.26	3.15712
23.27	3.17456
23.28	3.1637
23.29	3.16634
23.3	3.17094
23.31	3.17127
23.32	3.17785
23.33	3.18015
23.34	3.16173
23.35	3.17061
23.36	3.17785
23.37	3.16469
23.38	3.16897
23.39	3.18147
23.4	3.18213
23.41	3.17028
23.42	3.18015
23.43	3.18147
23.44	3.15877
23.45	3.1762
23.46	3.17818
23.47	3.17916
23.48	3.15548
23.49	3.16305
23.5	3.1818
23.51	3.18081
23.52	3.17785
23.53	3.17028
23.54	3.18936
23.55	3.20022
23.56	3.17291
23.57	3.17357
23.58	3.18114
23.59	3.18509
23.6	3.16403
23.61	3.1887
23.62	3.18048
23.63	3.16798
23.64	3.16041
23.65	3.15351
23.66	3.15186
23.67	3.16634
23.68	3.16798
23.69	3.17226
23.7	3.17653
23.71	3.16995
23.72	3.16798
23.73	3.16831
23.74	3.1716
23.75	3.17094
23.76	3.16502
23.77	3.16765
23.78	3.1762
23.79	3.1864
23.8	3.16469
23.81	3.17555
23.82	3.18344
23.83	3.1637
23.84	3.15976
23.85	3.17127
23.86	3.16074
23.87	3.16074
23.88	3.1716
23.89	3.18015
23.9	3.15844
23.91	3.15449
23.92	3.16831
23.93	3.18574
23.94	3.16305
23.95	3.16666
23.96	3.1818
23.97	3.17982
23.98	3.1693
23.99	3.17785
24	3.19364
24.01	3.1762
24.02	3.16535
24.03	3.17456
24.04	3.16897
24.05	3.17785
24.06	3.19134
24.07	3.18476
24.08	3.17555
24.09	3.17456
24.1	3.16206
24.11	3.16502
24.12	3.16305
24.13	3.18245
24.14	3.1762
24.15	3.17719
24.16	3.16699
24.17	3.16074
24.18	3.17028
24.19	3.15712
24.2	3.15614
24.21	3.16634
24.22	3.16502
24.23	3.15712
24.24	3.16962
24.25	3.16962
24.26	3.17851
24.27	3.16535
24.28	3.15614
24.29	3.16107
24.3	3.15186
24.31	3.16008
24.32	3.1693
24.33	3.17324
24.34	3.17259
24.35	3.15745
24.36	3.15811
24.37	3.13969
24.38	3.15449
24.39	3.17226
24.4	3.15943
24.41	3.16403
24.42	3.15745
24.43	3.14429
24.44	3.16568
24.45	3.16995
24.46	3.17949
24.47	3.17061
24.48	3.14857
24.49	3.15811
24.5	3.15548
24.51	3.16206
24.52	3.1637
24.53	3.16206
24.54	3.16041
24.55	3.17423
24.56	3.15745
24.57	3.16173
24.58	3.15219
24.59	3.18015
24.6	3.16765
24.61	3.13903
24.62	3.13508
24.63	3.17884
24.64	3.1693
24.65	3.1591
24.66	3.1693
24.67	3.16962
24.68	3.14693
24.69	3.16008
24.7	3.16535
24.71	3.14956
24.72	3.15778
24.73	3.17094
24.74	3.16403
24.75	3.15745
24.76	3.16436
24.77	3.1512
24.78	3.14101
24.79	3.15186
24.8	3.15515
24.81	3.1637
24.82	3.15318
24.83	3.14693
24.84	3.16206
24.85	3.15778
24.86	3.15745
24.87	3.14791
24.88	3.14824
24.89	3.14561
24.9	3.13476
24.91	3.15778
24.92	3.15153
24.93	3.16995
24.94	3.17818
24.95	3.17456
24.96	3.14528
24.97	3.15219
24.98	3.16535
24.99	3.14693
25	3.15153
25.01	3.15318
25.02	3.1693
25.03	3.15811
25.04	3.16666
25.05	3.16305
25.06	3.14824
25.07	3.15318
25.08	3.16732
25.09	3.17094
25.1	3.17324
25.11	3.1637
25.12	3.16634
25.13	3.14298
25.14	3.14495
25.15	3.14364
25.16	3.16535
25.17	3.16041
25.18	3.14528
25.19	3.14923
25.2	3.16995
25.21	3.16995
25.22	3.18147
25.23	3.18147
25.24	3.1512
25.25	3.13673
25.26	3.14462
25.27	3.14693
25.28	3.15416
25.29	3.15351
25.3	3.15844
25.31	3.18213
25.32	3.16897
25.33	3.16699
25.34	3.15778
25.35	3.16041
25.36	3.16074
25.37	3.18344
25.38	3.15778
25.39	3.17752
25.4	3.16074
25.41	3.16798
25.42	3.16107
25.43	3.15943
25.44	3.14857
25.45	3.17324
25.46	3.1762
25.47	3.16535
25.48	3.17686
25.49	3.1591
25.5	3.16634
25.51	3.16831
25.52	3.16798
25.53	3.17324
25.54	3.13706
25.55	3.14561
25.56	3.14627
25.57	3.15778
25.58	3.15712
25.59	3.16732
25.6	3.16502
25.61	3.1739
25.62	3.17851
25.63	3.16272
25.64	3.17357
25.65	3.16634
25.66	3.16765
25.67	3.14857
25.68	3.18048
25.69	3.16403
25.7	3.16173
25.71	3.16337
25.72	3.14627
25.73	3.15416
25.74	3.1614
25.75	3.14758
25.76	3.15877
25.77	3.16601
25.78	3.16765
25.79	3.15976
25.8	3.14429
25.81	3.15811
25.82	3.16535
25.83	3.15087
25.84	3.16535
25.85	3.16305
25.86	3.15055
25.87	3.13541
25.88	3.14824
25.89	3.1489
25.9	3.18015
25.91	3.1693
25.92	3.14462
25.93	3.13344
25.94	3.1489
25.95	3.15745
25.96	3.16502
25.97	3.15153
25.98	3.13739
25.99	3.15318
26	3.1512
26.01	3.16305
26.02	3.16305
26.03	3.16995
26.04	3.16173
26.05	3.1512
26.06	3.16864
26.07	3.18838
26.08	3.14101
26.09	3.14956
26.1	3.16634
26.11	3.14495
26.12	3.14364
26.13	3.17851
26.14	3.1693
26.15	3.14627
26.16	3.1512
26.17	3.15186
26.18	3.15581
26.19	3.13607
26.2	3.16206
26.21	3.15647
26.22	3.14166
26.23	3.15515
26.24	3.14824
26.25	3.1387
26.26	3.15614
26.27	3.14495
26.28	3.15087
26.29	3.15976
26.3	3.15614
26.31	3.16436
26.32	3.16337
26.33	3.14758
26.34	3.15055
26.35	3.1285
26.36	3.15219
26.37	3.16337
26.38	3.1489
26.39	3.12916
26.4	3.14002
26.41	3.14364
26.42	3.16732
26.43	3.16206
26.44	3.16403
26.45	3.15383
26.46	3.1614
26.47	3.16469
26.48	3.15482
26.49	3.16173
26.5	3.1591
26.51	3.14956
26.52	3.16173
26.53	3.15877
26.54	3.15548
26.55	3.13048
26.56	3.15647
26.57	3.18048
26.58	3.1614
26.59	3.15449
26.6	3.16305
26.61	3.16502
26.62	3.14561
26.63	3.15449
26.64	3.15351
26.65	3.13903
26.66	3.14824
26.67	3.17291
26.68	3.16568
26.69	3.15153
26.7	3.14068
26.71	3.17061
26.72	3.16568
26.73	3.14627
26.74	3.1591
26.75	3.15449
26.76	3.14232
26.77	3.1387
26.78	3.1614
26.79	3.17357
26.8	3.14857
26.81	3.14726
26.82	3.16535
26.83	3.15087
26.84	3.18936
26.85	3.16962
26.86	3.18081
26.87	3.15745
26.88	3.14462
26.89	3.16699
26.9	3.15943
26.91	3.14956
26.92	3.15055
26.93	3.1489
26.94	3.16173
26.95	3.17226
26.96	3.15712
26.97	3.16272
26.98	3.15614
26.99	3.15351
27	3.15055
27.01	3.16272
27.02	3.16206
27.03	3.18048
27.04	3.15877
27.05	3.14199
27.06	3.15581
27.07	3.17226
27.08	3.15614
27.09	3.13278
27.1	3.14528
27.11	3.16008
27.12	3.16272
27.13	3.15022
27.14	3.14726
27.15	3.17719
27.16	3.1716
27.17	3.16074
27.18	3.1512
27.19	3.1568
27.2	3.16403
27.21	3.15976
27.22	3.1591
27.23	3.16173
27.24	3.14726
27.25	3.13837
27.26	3.16732
27.27	3.16074
27.28	3.16995
27.29	3.16502
27.3	3.16666
27.31	3.15515
27.32	3.16206
27.33	3.15219
27.34	3.13903
27.35	3.15318
27.36	3.17818
27.37	3.16074
27.38	3.15581
27.39	3.15943
27.4	3.15416
27.41	3.13804
27.42	3.14923
27.43	3.15712
27.44	3.15778
27.45	3.15449
27.46	3.14101
27.47	3.14726
27.48	3.17291
27.49	3.16897
27.5	3.16041
27.51	3.15877
27.52	3.16897
27.53	3.16107
27.54	3.1716
27.55	3.15614
27.56	3.13804
27.57	3.17555
27.58	3.16634
27.59	3.1341
27.6	3.16008
27.61	3.14693
27.62	3.14462
27.63	3.15318
27.64	3.1716
27.65	3.15515
27.66	3.14495
27.67	3.16403
27.68	3.14232
27.69	3.12883
27.7	3.1364
27.71	3.16107
27.72	3.14857
27.73	3.13739
27.74	3.15285
27.75	3.14397
27.76	3.14462
27.77	3.14166
27.78	3.14594
27.79	3.14232
27.8	3.15318
27.81	3.16272
27.82	3.16041
27.83	3.15416
27.84	3.1364
27.85	3.15581
27.86	3.16107
27.87	3.14791
27.88	3.16173
27.89	3.15055
27.9	3.13969
27.91	3.12225
27.92	3.15186
27.93	3.14002
27.94	3.14857
27.95	3.15811
27.96	3.15383
27.97	3.16337
27.98	3.15778
27.99	3.14824
28	3.15581
28.01	3.1512
28.02	3.1239
28.03	3.15712
28.04	3.15318
28.05	3.15778
28.06	3.14035
28.07	3.16535
28.08	3.1387
28.09	3.14462
28.1	3.1512
28.11	3.15976
28.12	3.15186
28.13	3.16173
28.14	3.14232
28.15	3.16337
28.16	3.17193
28.17	3.17686
28.18	3.14199
28.19	3.13476
28.2	3.1716
28.21	3.15252
28.22	3.13541
28.23	3.13772
28.24	3.14989
28.25	3.14857
28.26	3.13541
28.27	3.14462
28.28	3.16436
28.29	3.15712
28.3	3.14528
28.31	3.15712
28.32	3.15285
28.33	3.16107
28.34	3.15877
28.35	3.1466
28.36	3.14791
28.37	3.14923
28.38	3.14298
28.39	3.15811
28.4	3.14298
28.41	3.14627
28.42	3.14068
28.43	3.16732
28.44	3.17061
28.45	3.1466
28.46	3.13607
28.47	3.16436
28.48	3.17818
28.49	3.15515
28.5	3.1364
28.51	3.16601
28.52	3.16436
28.53	3.1568
28.54	3.13443
28.55	3.15219
28.56	3.15186
28.57	3.14824
28.58	3.1591
28.59	3.14956
28.6	3.14133
28.61	3.13903
28.62	3.14495
28.63	3.1693
28.64	3.16765
28.65	3.15614
28.66	3.14068
28.67	3.14857
28.68	3.1387
28.69	3.13837
28.7	3.15153
28.71	3.14331
28.72	3.1387
28.73	3.15976
28.74	3.13179
28.75	3.15844
28.76	3.14265
28.77	3.13706
28.78	3.15219
28.79	3.14758
28.8	3.14627
28.81	3.13377
28.82	3.14133
28.83	3.15351
28.84	3.14824
28.85	3.15515
28.86	3.16173
28.87	3.15811
28.88	3.15482
28.89	3.13804
28.9	3.14133
28.91	3.14824
28.92	3.14956
28.93	3.1568
28.94	3.1591
28.95	3.13969
28.96	3.14627
28.97	3.15581
28.98	3.14989
28.99	3.14726
29	3.14791
29.01	3.15976
29.02	3.15186
29.03	3.1489
29.04	3.14364
29.05	3.16601
29.06	3.1466
29.07	3.13607
29.08	3.15482
29.09	3.14627
29.1	3.14693
29.11	3.13443
29.12	3.14462
29.13	3.16897
29.14	3.14495
29.15	3.14989
29.16	3.15219
29.17	3.16962
29.18	3.15383
29.19	3.14199
29.2	3.16239
29.21	3.14693
29.22	3.14989
29.23	3.16173
29.24	3.14002
29.25	3.15285
29.26	3.16272
29.27	3.18147
29.28	3.15153
29.29	3.15482
29.3	3.16995
29.31	3.15943
29.32	3.15943
29.33	3.14693
29.34	3.13804
29.35	3.14462
29.36	3.15416
29.37	3.14824
29.38	3.14364
29.39	3.14594
29.4	3.1364
29.41	3.14331
29.42	3.13936
29.43	3.1512
29.44	3.15351
29.45	3.14462
29.46	3.15745
29.47	3.12291
29.48	3.1364
29.49	3.15022
29.5	3.14002
29.51	3.15581
29.52	3.13081
29.53	3.13212
29.54	3.14002
29.55	3.14035
29.56	3.15647
29.57	3.16107
29.58	3.14101
29.59	3.14495
29.6	3.14101
29.61	3.15285
29.62	3.15087
29.63	3.14298
29.64	3.17884
29.65	3.15712
29.66	3.14232
29.67	3.15087
29.68	3.14101
29.69	3.14627
29.7	3.14397
29.71	3.1591
29.72	3.15153
29.73	3.16634
29.74	3.15383
29.75	3.14923
29.76	3.15548
29.77	3.1285
29.78	3.12883
29.79	3.13903
29.8	3.13706
29.81	3.14528
29.82	3.15515
29.83	3.15712
29.84	3.16008
29.85	3.1489
29.86	3.12818
29.87	3.13574
29.88	3.13081
29.89	3.13673
29.9	3.14364
29.91	3.13936
29.92	3.15055
29.93	3.13377
29.94	3.13212
29.95	3.14397
29.96	3.13476
29.97	3.14397
29.98	3.14429
29.99	3.15318
30	3.13903
