"BIO-KINE ASCII FILE"
"_COMMENT"	"MOS-500 Spectrometer"
"_COMMENT"	"Kinetics measurement"
"_COMMENT"	"Y Unit : Volt,  X Unit : s"
"_COMMENT"	"Excitation wavelength : 380 nm"
"_COMMENT"	"Fentes bandwidth =  1 nm"
"_COMMENT"	"HV= 1000V"
"_COMMENT"	"Timebase  1 =  .01 s   5001 pts"
"_SFM"	"SFM-400 /S  Advanced mode"
"_SFM"	"Ratio : S1: 2.5, S2: 0, S3: 0, S4: 1"
"_SFM"	"Content : S1: , S2: , S3: , S4:"
"_SFM"	"Concentration : S1: , S2: , S3: , S4:"
"_SFM"	"Total volume : 209 µl  Flow : 3.5 mL/s"
"_SFM"	"Acquisition start :  10 ms before stop"
"_SFM"	"cuve=FC-15, s1=10 ml , s2=10 ml , s3=10 ml , s4=1.9 ml"
"_UNITX"	"s"
"_UNITY"	"Volt"
"_DELTAX"	0
"_DATA"
1e-300	2.00577
0.01	1.99952
0.02	2.0663
0.03	2.04393
0.04	1.99755
0.05	2.03965
0.06	2.03834
0.07	2.0038
0.08	2.01235
0.09	2.03176
0.1	2.02189
0.11	2.03242
0.12	2.01959
0.13	2.0334
0.14	2.01663
0.15	2.02386
0.16	2.05775
0.17	2.01235
0.18	2.04327
0.19	2.03373
0.2	2.0288
0.21	2.03274
0.22	2.03801
0.23	2.02222
0.24	2.04228
0.25	2.02222
0.26	2.039
0.27	2.03274
0.28	2.04689
0.29	2.04689
0.3	2.03439
0.31	2.04821
0.32	2.02255
0.33	2.03373
0.34	2.02222
0.35	2.02715
0.36	2.02847
0.37	2.02748
0.38	2.00906
0.39	2.02386
0.4	2.01959
0.41	2.04689
0.42	2.01432
0.43	2.01334
0.44	2.03044
0.45	2.04163
0.46	2.03538
0.47	2.0413
0.48	2.01367
0.49	2.02847
0.5	2.02024
0.51	2.02946
0.52	2.03439
0.53	2.03373
0.54	2.03801
0.55	2.01761
0.56	2.02518
0.57	1.99689
0.58	1.99294
0.59	2.00018
0.6	2.03702
0.61	2.02682
0.62	2.03932
0.63	2.01531
0.64	2.03044
0.65	2.02485
0.66	2.0459
0.67	2.00643
0.68	2.01465
0.69	2.02288
0.7	2.0084
0.71	2.01169
0.72	1.96531
0.73	2.00742
0.74	2.03571
0.75	2.03373
0.76	2.04623
0.77	2.02715
0.78	2.01432
0.79	2.01301
0.8	2.03274
0.81	2.01465
0.82	1.99985
0.83	2.00116
0.84	2.01005
0.85	2.04327
0.86	2.04886
0.87	2.03011
0.88	2.01465
0.89	2.02814
0.9	2.04459
0.91	2.03636
0.92	2.01334
0.93	2.02353
0.94	2.00807
0.95	2.00347
0.96	2.05182
0.97	2.04393
0.98	2.02715
0.99	2.01564
1	2.00906
1.01	2.00347
1.02	2.01564
1.03	2.02682
1.04	2.02386
1.05	2.02518
1.06	2.03571
1.07	2.01663
1.08	2.01728
1.09	2.02386
1.1	2.03603
1.11	2.01959
1.12	2.05577
1.13	2.03669
1.14	2.02584
1.15	2.01005
1.16	2.01334
1.17	2.01761
1.18	2.01399
1.19	2.00182
1.2	2.02189
1.21	2.00314
1.22	2.01038
1.23	2.02452
1.24	2.04985
1.25	2.01432
1.26	2.02584
1.27	2.02748
1.28	2.02518
1.29	2.03571
1.3	2.03965
1.31	2.04985
1.32	2.02715
1.33	2.01367
1.34	2.02551
1.35	1.99491
1.36	2.04393
1.37	2.02978
1.38	2.00774
1.39	2.03307
1.4	2.04196
1.41	2.05939
1.42	2.03801
1.43	2.01367
1.44	2.01268
1.45	2.0311
1.46	2.02288
1.47	1.99853
1.48	2.02649
1.49	2.05084
1.5	2.01926
1.51	1.99656
1.52	2.00314
1.53	2.00347
1.54	2.01202
1.55	2.00676
1.56	2.00939
1.57	2.0413
1.58	2.0209
1.59	2.01235
1.6	1.99557
1.61	2.01268
1.62	2.03044
1.63	2.04261
1.64	2.01663
1.65	2.01038
1.66	2.01893
1.67	2.04525
1.68	2.02419
1.69	2.00972
1.7	2.02946
1.71	2.04064
1.72	2.0186
1.73	2.00972
1.74	2.03768
1.75	2.0413
1.76	2.0163
1.77	2.01169
1.78	2.01761
1.79	2.00347
1.8	2.03176
1.81	1.99952
1.82	2.00478
1.83	2.01103
1.84	2.01893
1.85	2.00314
1.86	1.9959
1.87	2.00281
1.88	2.01169
1.89	2.0084
1.9	1.99097
1.91	2.01959
1.92	2.03044
1.93	2.00182
1.94	2.00018
1.95	2.01498
1.96	2.03143
1.97	2.03505
1.98	2.01498
1.99	2.0061
2	2.01465
2.01	2.02222
2.02	2.01103
2.03	2.01827
2.04	2.01169
2.05	2.0163
2.06	2.00084
2.07	2.00742
2.08	1.99985
2.09	2.0163
2.1	2.03011
2.11	2.02748
2.12	2.0311
2.13	2.02057
2.14	2.00709
2.15	2.0061
2.16	2.02189
2.17	2.04031
2.18	2.04196
2.19	2.01432
2.2	1.99886
2.21	2.03801
2.22	2.02814
2.23	2.039
2.24	2.02452
2.25	2.02452
2.26	2.01794
2.27	2.0163
2.28	2.03143
2.29	2.04163
2.3	2.0413
2.31	2.03307
2.32	2.04064
2.33	2.01663
2.34	2.02123
2.35	2.0084
2.36	2.01202
2.37	2.02452
2.38	2.05775
2.39	2.00742
2.4	2.02057
2.41	1.98044
2.42	2.01301
2.43	2.03702
2.44	2.04064
2.45	2.02617
2.46	2.01564
2.47	2.01432
2.48	2.04097
2.49	2.03077
2.5	2.00314
2.51	1.99163
2.52	1.99294
2.53	2.02123
2.54	2.03932
2.55	2.01399
2.56	2.03176
2.57	2.03735
2.58	2.0163
2.59	2.0209
2.6	2.05511
2.61	2.01761
2.62	2.02386
2.63	2.02781
2.64	2.01761
2.65	2.01827
2.66	2.01334
2.67	2.0334
2.68	2.02057
2.69	2.00873
2.7	2.04689
2.71	2.04853
2.72	2.01367
2.73	2.04261
2.74	2.03505
2.75	2.04097
2.76	2.04853
2.77	2.01268
2.78	1.99886
2.79	2.02123
2.8	2.0186
2.81	1.99623
2.82	2.02682
2.83	2.0163
2.84	2.02913
2.85	2.0288
2.86	2.00445
2.87	2.00281
2.88	2.01926
2.89	2.01926
2.9	2.02781
2.91	2.01794
2.92	2.02715
2.93	2.02321
2.94	2.00281
2.95	2.01992
2.96	2.00939
2.97	1.97024
2.98	2.00939
2.99	2.02814
3	2.02123
3.01	2.00084
3.02	2.02551
3.03	2.03044
3.04	2.00873
3.05	2.0209
3.06	2.00182
3.07	2.03274
3.08	2.00807
3.09	2.00709
3.1	2.01334
3.11	2.02814
3.12	2.03867
3.13	2.01827
3.14	2.01268
3.15	1.99788
3.16	2.03439
3.17	2.01893
3.18	2.0334
3.19	2.01235
3.2	2.0061
3.21	2.01301
3.22	2.01465
3.23	2.0311
3.24	2.01959
3.25	2.02485
3.26	2.01992
3.27	2.01926
3.28	2.00413
3.29	2.00051
3.3	2.02222
3.31	2.01432
3.32	2.01005
3.33	2.03669
3.34	2.02682
3.35	2.02255
3.36	2.01794
3.37	2.00742
3.38	2.03044
3.39	2.02617
3.4	2.02156
3.41	1.99459
3.42	2.01992
3.43	1.99919
3.44	2.02419
3.45	2.02781
3.46	1.9834
3.47	1.99985
3.48	2.01761
3.49	2.02222
3.5	2.00182
3.51	2.00116
3.52	2.00972
3.53	2.0163
3.54	2.01169
3.55	2.0288
3.56	2.05446
3.57	1.99755
3.58	2.01564
3.59	2.02978
3.6	2.03669
3.61	2.01268
3.62	2.01268
3.63	2.00511
3.64	1.98965
3.65	2.02024
3.66	2.06794
3.67	2.03373
3.68	2.02123
3.69	2.01695
3.7	2.02024
3.71	2.02156
3.72	2.03439
3.73	2.01268
3.74	2.01564
3.75	2.02222
3.76	2.03077
3.77	2.01367
3.78	2.0084
3.79	2.01893
3.8	2.03439
3.81	2.03571
3.82	2.01334
3.83	2.01367
3.84	2.0163
3.85	2.01695
3.86	2.02682
3.87	2.02386
3.88	2.02057
3.89	1.99886
3.9	2.01663
3.91	2.01992
3.92	2.02353
3.93	1.98176
3.94	2.00807
3.95	2.03702
3.96	2.00281
3.97	2.02222
3.98	2.00051
3.99	2.00709
4	2.0413
4.01	2.03571
4.02	2.01761
4.03	2.03242
4.04	2.01367
4.05	2.01663
4.06	2.03143
4.07	2.01531
4.08	1.99491
4.09	2.02255
4.1	2.01761
4.11	2.01827
4.12	2.02156
4.13	2.01597
4.14	2.03801
4.15	2.00873
4.16	2.00544
4.17	2.01926
4.18	2.01334
4.19	2.01926
4.2	2.05413
4.21	2.05807
4.22	2.01367
4.23	2.01399
4.24	2.02123
4.25	2.03571
4.26	2.00314
4.27	1.98998
4.28	2.01334
4.29	1.99985
4.3	2.02189
4.31	2.03571
4.32	2.04985
4.33	2.02518
4.34	1.96695
4.35	2.00709
4.36	2.03571
4.37	2.03801
4.38	2.00906
4.39	2.0061
4.4	2.01301
4.41	1.99261
4.42	2.01597
4.43	1.99755
4.44	2.01334
4.45	2.02946
4.46	1.99097
4.47	2.01103
4.48	2.0107
4.49	2.01959
4.5	1.99261
4.51	2.01005
4.52	2.03801
4.53	2.03669
4.54	2.02847
4.55	2.00445
4.56	2.00018
4.57	1.98176
4.58	1.99524
4.59	2.00116
4.6	2.00906
4.61	2.02847
4.62	2.00478
4.63	1.99722
4.64	1.9936
4.65	2.0288
4.66	2.03307
4.67	2.01597
4.68	1.99952
4.69	2.01663
4.7	2.02156
4.71	2.03373
4.72	2.02518
4.73	2.03406
4.74	2.04755
4.75	2.03636
4.76	1.99491
4.77	2.01367
4.78	2.01301
4.79	2.01038
4.8	2.01038
4.81	2.02321
4.82	2.00544
4.83	2.02946
4.84	2.01794
4.85	2.01202
4.86	1.99491
4.87	1.97715
4.88	2.00445
4.89	1.99031
4.9	1.9936
4.91	1.99491
4.92	2.01959
4.93	2.0311
4.94	1.99722
4.95	2.03571
4.96	2.02617
4.97	2.00643
4.98	2.01268
4.99	2.04327
5	2.06301
5.01	2.02682
5.02	2.00643
5.03	2.0186
5.04	2.03439
5.05	2.01926
5.06	2.01399
5.07	2.01531
5.08	2.01893
5.09	2.00709
5.1	2.05413
5.11	2.04656
5.12	2.02024
5.13	2.01202
5.14	2.02321
5.15	1.99261
5.16	2.01038
5.17	2.00478
5.18	2.03702
5.19	2.0288
5.2	2.00116
5.21	2.01202
5.22	2.01695
5.23	2.03209
5.24	2.04525
5.25	2.02189
5.26	2.04525
5.27	2.03636
5.28	2.01202
5.29	2.00939
5.3	2.0209
5.31	2.01761
5.32	2.01399
5.33	2.02189
5.34	2.02485
5.35	1.99623
5.36	2.04031
5.37	2.02419
5.38	2.01202
5.39	2.00972
5.4	2.02057
5.41	2.03735
5.42	2.03011
5.43	1.99755
5.44	1.99195
5.45	2.01103
5.46	2.03242
5.47	2.02978
5.48	2.00215
5.49	2.01301
5.5	2.02485
5.51	2.02419
5.52	1.99788
5.53	2.02156
5.54	2.02024
5.55	2.01399
5.56	2.03735
5.57	2.02485
5.58	2.01432
5.59	2.02715
5.6	1.98768
5.61	2.01597
5.62	2.01992
5.63	2.00939
5.64	2.02551
5.65	2.03176
5.66	2.02452
5.67	2.03011
5.68	2.0038
5.69	2.01202
5.7	2.00939
5.71	2.01103
5.72	2.00445
5.73	2.01597
5.74	2.01597
5.75	2.02288
5.76	2.00939
5.77	2.01334
5.78	2.02551
5.79	2.01103
5.8	2.01794
5.81	2.03044
5.82	2.02781
5.83	2.00972
5.84	2.00445
5.85	2.02715
5.86	2.01038
5.87	2.01432
5.88	1.98801
5.89	1.98636
5.9	2.00149
5.91	2.00182
5.92	2.01334
5.93	2.00643
5.94	2.01465
5.95	2.01695
5.96	2.0209
5.97	2.01465
5.98	2.01992
5.99	2.03834
6	2.02715
6.01	2.0334
6.02	2.02419
6.03	1.99952
6.04	2.01794
6.05	2.01334
6.06	1.9959
6.07	2.0084
6.08	2.02814
6.09	2.01893
6.1	2.01136
6.11	1.99261
6.12	2.00084
6.13	2.02946
6.14	2.0107
6.15	2.02584
6.16	1.99426
6.17	2.02353
6.18	2.02156
6.19	2.02288
6.2	2.01597
6.21	2.00281
6.22	2.02419
6.23	2.03538
6.24	2.04393
6.25	2.01564
6.26	1.99459
6.27	1.99426
6.28	2.02255
6.29	2.02024
6.3	2.01827
6.31	2.05676
6.32	2.0334
6.33	2.03274
6.34	2.00742
6.35	1.99524
6.36	2.03373
6.37	2.00511
6.38	2.0038
6.39	2.00116
6.4	2.01531
6.41	2.0084
6.42	2.00314
6.43	2.01498
6.44	2.00511
6.45	2.01465
6.46	2.01465
6.47	2.01663
6.48	2.00445
6.49	2.02584
6.5	2.02057
6.51	2.00939
6.52	2.03373
6.53	2.02682
6.54	2.02551
6.55	2.03998
6.56	2.02321
6.57	2.02452
6.58	2.03538
6.59	2.0515
6.6	2.02222
6.61	2.00281
6.62	2.01432
6.63	2.03538
6.64	2.04031
6.65	1.99788
6.66	2.01959
6.67	2.03077
6.68	2.01465
6.69	2.03176
6.7	2.0288
6.71	2.01794
6.72	2.04689
6.73	2.01136
6.74	2.01038
6.75	2.02452
6.76	2.03274
6.77	2.02288
6.78	2.04228
6.79	2.01498
6.8	2.00939
6.81	2.00807
6.82	1.99689
6.83	1.9959
6.84	2.0413
6.85	2.04261
6.86	2.04952
6.87	2.05182
6.88	2.03406
6.89	2.00774
6.9	2.00709
6.91	2.01794
6.92	2.03406
6.93	2.01926
6.94	2.00972
6.95	2.02156
6.96	2.0084
6.97	2.01564
6.98	2.01761
6.99	2.02321
7	2.01959
7.01	2.03505
7.02	2.03636
7.03	1.99985
7.04	2.00643
7.05	2.0061
7.06	2.00149
7.07	1.9857
7.08	1.99985
7.09	1.99722
7.1	1.98866
7.11	2.01794
7.12	2.03044
7.13	1.9857
7.14	2.0084
7.15	2.02485
7.16	1.99985
7.17	2.02123
7.18	1.9982
7.19	2.01992
7.2	2.01564
7.21	2.00544
7.22	2.02156
7.23	2.01301
7.24	2.01893
7.25	1.98768
7.26	2.03143
7.27	2.05544
7.28	2.00478
7.29	2.0311
7.3	2.00511
7.31	2.02353
7.32	2.02353
7.33	2.0334
7.34	2.03867
7.35	2.02321
7.36	2.05182
7.37	2.02518
7.38	2.03636
7.39	2.02386
7.4	2.0288
7.41	2.02353
7.42	2.01334
7.43	2.02978
7.44	2.02946
7.45	2.03077
7.46	2.03044
7.47	2.02682
7.48	2.00742
7.49	1.9982
7.5	2.03669
7.51	2.00347
7.52	1.9959
7.53	2.02847
7.54	2.02946
7.55	2.02024
7.56	2.00413
7.57	2.03077
7.58	2.02485
7.59	2.03998
7.6	2.01103
7.61	2.00347
7.62	1.99886
7.63	2.01399
7.64	2.04623
7.65	2.01728
7.66	2.02024
7.67	2.02255
7.68	2.00347
7.69	2.01959
7.7	2.03472
7.71	2.01597
7.72	2.0413
7.73	1.99886
7.74	2.02024
7.75	2.01399
7.76	2.00906
7.77	1.97912
7.78	1.97649
7.79	2.01268
7.8	2.0186
7.81	2.02189
7.82	2.02946
7.83	2.02814
7.84	2.01367
7.85	2.00577
7.86	2.0061
7.87	2.01202
7.88	1.99623
7.89	2.02847
7.9	2.02814
7.91	2.03603
7.92	2.02189
7.93	2.02913
7.94	2.02584
7.95	2.01301
7.96	2.03505
7.97	2.03176
7.98	1.99623
7.99	2.00643
8	2.02978
8.01	2.01761
8.02	2.03011
8.03	2.03538
8.04	1.99426
8.05	2.03176
8.06	2.02978
8.07	2.06071
8.08	2.03998
8.09	1.99459
8.1	2.00149
8.11	2.01728
8.12	2.00511
8.13	1.98801
8.14	2.01465
8.15	2.02847
8.16	2.02649
8.17	2.0334
8.18	2.02222
8.19	2.02682
8.2	2.02222
8.21	2.02518
8.22	2.03307
8.23	2.00643
8.24	1.99886
8.25	2.02321
8.26	2.02288
8.27	2.03406
8.28	1.99886
8.29	2.04294
8.3	2.0288
8.31	2.02255
8.32	1.99031
8.33	2.00051
8.34	2.02913
8.35	2.02255
8.36	2.00445
8.37	2.02518
8.38	2.05643
8.39	2.04886
8.4	2.02321
8.41	2.02419
8.42	2.04821
8.43	2.03867
8.44	2.04525
8.45	2.01399
8.46	2.01005
8.47	1.99623
8.48	2.01695
8.49	2.00478
8.5	2.02189
8.51	2.01235
8.52	2.0061
8.53	2.00906
8.54	1.99426
8.55	2.00182
8.56	2.01432
8.57	2.02649
8.58	1.99689
8.59	2.0311
8.6	2.01399
8.61	2.00807
8.62	2.02419
8.63	2.04393
8.64	2.01597
8.65	1.98669
8.66	2.00116
8.67	2.0413
8.68	2.03801
8.69	2.02847
8.7	2.01663
8.71	2.02156
8.72	2.04459
8.73	2.02485
8.74	2.02057
8.75	2.01827
8.76	2.02913
8.77	2.02814
8.78	2.04228
8.79	2.04393
8.8	2.04064
8.81	2.01136
8.82	1.99294
8.83	2.01498
8.84	2.02781
8.85	2.01268
8.86	2.02748
8.87	2.00906
8.88	2.02386
8.89	2.01695
8.9	2.00445
8.91	1.99524
8.92	1.99031
8.93	2.01728
8.94	2.01136
8.95	2.01597
8.96	2.02946
8.97	2.02288
8.98	2.04393
8.99	2.0288
9	2.01893
9.01	2.02386
9.02	2.02255
9.03	2.01663
9.04	2.01005
9.05	2.01235
9.06	2.02715
9.07	2.01005
9.08	2.00314
9.09	2.00709
9.1	2.0163
9.11	2.05018
9.12	2.02255
9.13	2.039
9.14	2.02156
9.15	2.00182
9.16	2.03373
9.17	2.02321
9.18	2.0163
9.19	2.01202
9.2	2.03768
9.21	2.02551
9.22	2.00544
9.23	2.01202
9.24	2.01728
9.25	2.01597
9.26	2.02781
9.27	2.03867
9.28	2.0107
9.29	2.05676
9.3	2.02847
9.31	1.9982
9.32	1.98834
9.33	2.0084
9.34	2.00939
9.35	2.03406
9.36	2.03867
9.37	2.00413
9.38	1.99952
9.39	2.00511
9.4	2.02518
9.41	1.9959
9.42	1.99853
9.43	2.01531
9.44	2.0061
9.45	2.00709
9.46	2.00676
9.47	2.01827
9.48	2.02518
9.49	1.99623
9.5	1.99853
9.51	2.04196
9.52	2.0107
9.53	2.01794
9.54	2.00149
9.55	2.01169
9.56	1.99294
9.57	2.01959
9.58	2.03965
9.59	2.05479
9.6	2.00807
9.61	2.02255
9.62	2.04722
9.63	2.02946
9.64	1.99195
9.65	2.01728
9.66	2.02946
9.67	1.99722
9.68	2.01367
9.69	2.04689
9.7	2.03209
9.71	2.03538
9.72	1.99853
9.73	1.99788
9.74	1.98998
9.75	1.99788
9.76	2.0107
9.77	2.00182
9.78	2.03965
9.79	2.01367
9.8	2.0038
9.81	2.01367
9.82	2.03472
9.83	2.02617
9.84	2.02156
9.85	2.01169
9.86	2.02189
9.87	2.01038
9.88	2.02123
9.89	2.0107
9.9	2.02649
9.91	2.01432
9.92	2.02057
9.93	2.03439
9.94	2.03077
9.95	2.02024
9.96	2.01498
9.97	2.02419
9.98	2.01564
9.99	2.0038
10	2.00972
10.01	2.01498
10.02	2.01301
10.03	2.03242
10.04	2.0288
10.05	2.02518
10.06	2.02682
10.07	2.02452
10.08	2.03077
10.09	2.02386
10.1	2.02156
10.11	2.0584
10.12	2.02551
10.13	2.00676
10.14	2.01301
10.15	2.01794
10.16	2.0107
10.17	2.03538
10.18	2.03505
10.19	2.03867
10.2	2.03176
10.21	1.98965
10.22	2.00445
10.23	2.03439
10.24	2.01827
10.25	2.02288
10.26	2.00248
10.27	1.99064
10.28	2.03077
10.29	2.02485
10.3	2.02419
10.31	2.00972
10.32	2.02288
10.33	2.03274
10.34	2.02748
10.35	2.03373
10.36	2.02748
10.37	2.00149
10.38	2.02682
10.39	1.99985
10.4	2.03143
10.41	2.01695
10.42	2.01301
10.43	2.01597
10.44	2.01663
10.45	2.01728
10.46	2.02222
10.47	2.04393
10.48	2.0209
10.49	2.00544
10.5	2.03669
10.51	2.02617
10.52	2.02748
10.53	2.03834
10.54	2.03274
10.55	2.00248
10.56	2.01728
10.57	1.98735
10.58	2.01301
10.59	2.00347
10.6	2.00314
10.61	2.00972
10.62	2.02715
10.63	2.02321
10.64	2.0209
10.65	2.02057
10.66	2.03998
10.67	2.02518
10.68	2.03538
10.69	2.01597
10.7	2.02057
10.71	2.01103
10.72	2.01334
10.73	2.04459
10.74	2.00643
10.75	2.01432
10.76	2.00709
10.77	1.99853
10.78	2.02781
10.79	2.00347
10.8	2.02551
10.81	2.02024
10.82	2.03077
10.83	2.00051
10.84	2.01202
10.85	2.01531
10.86	2.02024
10.87	2.00445
10.88	2.00084
10.89	1.99656
10.9	2.01169
10.91	2.0186
10.92	2.01498
10.93	2.03439
10.94	2.04031
10.95	2.01005
10.96	2.01695
10.97	2.03011
10.98	2.05117
10.99	2.04689
11	2.01498
11.01	2.01498
11.02	2.02156
11.03	2.00413
11.04	2.01432
11.05	2.02189
11.06	2.00577
11.07	2.03669
11.08	2.02123
11.09	2.03439
11.1	2.04228
11.11	2.01038
11.12	2.00248
11.13	2.01959
11.14	2.01794
11.15	2.05577
11.16	2.00709
11.17	2.02353
11.18	2.01564
11.19	2.00774
11.2	2.02617
11.21	2.0334
11.22	2.01301
11.23	2.02584
11.24	2.02321
11.25	2.01432
11.26	2.0061
11.27	2.01663
11.28	2.00972
11.29	2.01235
11.3	2.02288
11.31	2.02024
11.32	2.02156
11.33	2.02024
11.34	2.02255
11.35	2.01399
11.36	1.99853
11.37	1.99294
11.38	1.98768
11.39	1.98307
11.4	2.00742
11.41	2.0107
11.42	2.0084
11.43	2.0163
11.44	2.03867
11.45	2.0186
11.46	2.01465
11.47	2.02452
11.48	2.04228
11.49	2.039
11.5	2.02452
11.51	2.00676
11.52	2.02255
11.53	2.01564
11.54	2.03143
11.55	2.03373
11.56	2.02946
11.57	2.02189
11.58	2.02682
11.59	2.02584
11.6	2.02452
11.61	2.02321
11.62	2.02321
11.63	2.03406
11.64	2.04031
11.65	2.0436
11.66	2.03965
11.67	2.02419
11.68	1.9982
11.69	2.00478
11.7	2.00774
11.71	2.02715
11.72	2.01959
11.73	2.01235
11.74	2.04492
11.75	2.0459
11.76	2.02386
11.77	2.00544
11.78	1.99886
11.79	1.99557
11.8	2.01038
11.81	2.0061
11.82	2.0288
11.83	1.98932
11.84	2.02189
11.85	2.01564
11.86	2.02452
11.87	1.99294
11.88	2.03373
11.89	1.99623
11.9	2.01794
11.91	2.01926
11.92	2.01169
11.93	2.0334
11.94	2.01926
11.95	2.02255
11.96	2.03932
11.97	2.02255
11.98	2.03801
11.99	2.0288
12	2.00709
12.01	1.99788
12.02	2.03373
12.03	2.02913
12.04	2.02946
12.05	2.02518
12.06	2.02353
12.07	2.0209
12.08	2.039
12.09	2.00511
12.1	2.00972
12.11	2.00709
12.12	2.00544
12.13	2.02123
12.14	2.02353
12.15	2.03801
12.16	2.02913
12.17	2.01498
12.18	2.02156
12.19	1.99886
12.2	2.0186
12.21	2.00577
12.22	1.99886
12.23	2.00807
12.24	2.0186
12.25	2.03209
12.26	2.03143
12.27	2.01663
12.28	2.00774
12.29	2.01498
12.3	2.01399
12.31	2.00939
12.32	2.01334
12.33	2.01564
12.34	1.9913
12.35	2.00413
12.36	2.01498
12.37	2.04557
12.38	2.01103
12.39	2.00051
12.4	1.99623
12.41	2.0163
12.42	2.01268
12.43	2.00544
12.44	1.99294
12.45	2.02715
12.46	2.04327
12.47	2.01728
12.48	2.01959
12.49	2.01597
12.5	2.00577
12.51	2.01432
12.52	2.01136
12.53	2.01268
12.54	2.00577
12.55	1.9857
12.56	2.02551
12.57	2.01498
12.58	2.03669
12.59	2.03998
12.6	2.02847
12.61	2.01926
12.62	2.03209
12.63	2.04196
12.64	2.01597
12.65	2.01038
12.66	2.0107
12.67	2.04031
12.68	2.0334
12.69	2.02518
12.7	2.01038
12.71	2.02156
12.72	2.05511
12.73	2.04097
12.74	2.0334
12.75	2.03011
12.76	2.00116
12.77	1.99491
12.78	2.03801
12.79	2.03603
12.8	2.00149
12.81	2.01103
12.82	2.02946
12.83	2.03044
12.84	2.01367
12.85	2.01038
12.86	2.01301
12.87	2.01465
12.88	2.01564
12.89	2.00248
12.9	1.99755
12.91	2.02617
12.92	2.02024
12.93	2.03439
12.94	2.01926
12.95	2.02781
12.96	2.04294
12.97	2.06597
12.98	2.02913
12.99	2.0311
13	2.02518
13.01	2.01202
13.02	2.01794
13.03	2.00084
13.04	1.99557
13.05	2.02222
13.06	2.02584
13.07	2.01597
13.08	2.03472
13.09	2.02584
13.1	2.03307
13.11	2.01399
13.12	2.03307
13.13	2.00742
13.14	1.9959
13.15	1.9982
13.16	2.00314
13.17	1.99327
13.18	2.01399
13.19	2.00445
13.2	2.01005
13.21	2.02584
13.22	2.01432
13.23	2.02386
13.24	2.0163
13.25	1.98307
13.26	2.039
13.27	1.9913
13.28	2.01498
13.29	2.03373
13.3	2.00676
13.31	2.00939
13.32	2.01959
13.33	2.00873
13.34	2.00873
13.35	2.02913
13.36	2.02814
13.37	2.03209
13.38	2.03011
13.39	2.02386
13.4	2.03932
13.41	2.03965
13.42	2.03406
13.43	2.01103
13.44	2.01367
13.45	2.02715
13.46	2.03406
13.47	2.02353
13.48	2.03044
13.49	2.02485
13.5	2.01992
13.51	2.01564
13.52	1.99393
13.53	2.02649
13.54	2.01531
13.55	2.01663
13.56	1.99459
13.57	2.00511
13.58	2.02452
13.59	2.02419
13.6	1.99294
13.61	2.05972
13.62	2.05906
13.63	2.03735
13.64	2.02485
13.65	2.05182
13.66	2.02288
13.67	2.01959
13.68	2.00413
13.69	2.0186
13.7	1.99031
13.71	1.98735
13.72	2.01827
13.73	2.02156
13.74	2.02288
13.75	2.01367
13.76	1.99886
13.77	2.02156
13.78	2.01761
13.79	2.02057
13.8	2.0186
13.81	1.9959
13.82	2.02386
13.83	2.0436
13.84	2.03274
13.85	2.0436
13.86	2.0163
13.87	2.02156
13.88	2.04294
13.89	2.01103
13.9	2.00281
13.91	2.02057
13.92	2.03439
13.93	2.03242
13.94	2.00873
13.95	1.99261
13.96	2.02847
13.97	2.02123
13.98	2.01728
13.99	2.01728
14	2.01367
14.01	2.00084
14.02	1.99788
14.03	2.00873
14.04	2.0413
14.05	2.04196
14.06	2.03603
14.07	2.01498
14.08	2.0163
14.09	2.02189
14.1	2.02452
14.11	2.00742
14.12	2.03077
14.13	2.00445
14.14	2.01202
14.15	2.02321
14.16	2.01663
14.17	2.04261
14.18	2.02123
14.19	2.00314
14.2	2.01432
14.21	2.03768
14.22	2.03077
14.23	2.01202
14.24	2.01893
14.25	2.04689
14.26	2.03998
14.27	2.01334
14.28	2.02255
14.29	2.03044
14.3	2.05479
14.31	2.03242
14.32	2.02419
14.33	2.00577
14.34	2.00972
14.35	2.01432
14.36	2.00906
14.37	2.01959
14.38	2.04722
14.39	2.03571
14.4	2.02386
14.41	2.04426
14.42	2.02386
14.43	2.00544
14.44	2.01893
14.45	2.00314
14.46	2.00511
14.47	2.00445
14.48	2.01038
14.49	2.0561
14.5	2.02452
14.51	2.01728
14.52	2.03998
14.53	2.0107
14.54	2.02156
14.55	2.01334
14.56	2.03011
14.57	2.01663
14.58	2.04557
14.59	2.03768
14.6	1.98866
14.61	2.01334
14.62	2.03044
14.63	2.03274
14.64	2.02748
14.65	2.00347
14.66	2.02288
14.67	2.01038
14.68	2.04656
14.69	2.00314
14.7	2.02255
14.71	2.03538
14.72	2.03603
14.73	2.02255
14.74	2.01761
14.75	2.03735
14.76	2.04294
14.77	2.01202
14.78	2.01992
14.79	2.00807
14.8	2.01959
14.81	2.01761
14.82	1.9982
14.83	2.00906
14.84	2.02024
14.85	2.02485
14.86	2.00511
14.87	2.0186
14.88	1.98735
14.89	2.0334
14.9	2.02913
14.91	2.01235
14.92	2.02485
14.93	1.99656
14.94	2.01202
14.95	2.00873
14.96	1.99557
14.97	2.0186
14.98	2.02156
14.99	2.03176
15	2.04821
15.01	2.03735
15.02	2.03603
15.03	2.03636
15.04	2.02353
15.05	2.01959
15.06	2.05215
15.07	2.0334
15.08	2.00182
15.09	2.02024
15.1	2.02321
15.11	2.02452
15.12	2.01268
15.13	2.02649
15.14	2.03307
15.15	2.01169
15.16	2.01432
15.17	2.03932
15.18	2.0163
15.19	2.02978
15.2	2.01005
15.21	2.00544
15.22	2.02847
15.23	2.02617
15.24	2.04557
15.25	2.02353
15.26	2.0436
15.27	2.03439
15.28	2.00577
15.29	1.98603
15.3	2.02518
15.31	2.02978
15.32	2.01761
15.33	2.01564
15.34	2.00742
15.35	2.03307
15.36	1.99195
15.37	2.02913
15.38	2.00018
15.39	2.00742
15.4	2.00116
15.41	2.02123
15.42	2.02189
15.43	1.99031
15.44	2.00774
15.45	2.03571
15.46	2.03702
15.47	2.02057
15.48	2.00577
15.49	2.0061
15.5	2.0413
15.51	2.03702
15.52	2.02715
15.53	2.03044
15.54	2.02255
15.55	2.04788
15.56	2.0186
15.57	2.01301
15.58	2.00939
15.59	2.01827
15.6	1.98801
15.61	2.02649
15.62	2.02156
15.63	1.9936
15.64	1.98965
15.65	2.00906
15.66	2.01103
15.67	2.02419
15.68	2.02551
15.69	2.01334
15.7	2.00577
15.71	2.01235
15.72	2.01169
15.73	2.00807
15.74	2.02024
15.75	2.00939
15.76	2.02353
15.77	2.01597
15.78	2.02419
15.79	2.03143
15.8	1.99689
15.81	2.0186
15.82	2.02024
15.83	1.98735
15.84	2.03538
15.85	2.03274
15.86	2.03505
15.87	2.03932
15.88	2.03472
15.89	2.00643
15.9	2.02682
15.91	2.01432
15.92	2.00873
15.93	2.03406
15.94	2.03538
15.95	2.02584
15.96	2.01663
15.97	2.01169
15.98	2.03044
15.99	2.01465
16	2.0209
16.01	2.03932
16.02	2.02978
16.03	2.02814
16.04	2.00182
16.05	2.01038
16.06	2.02814
16.07	2.02123
16.08	2.02255
16.09	2.02419
16.1	2.02288
16.11	2.00445
16.12	2.00281
16.13	2.03373
16.14	2.00972
16.15	1.99459
16.16	2.03998
16.17	2.03077
16.18	2.01761
16.19	2.03735
16.2	2.02748
16.21	2.02288
16.22	2.03669
16.23	2.00643
16.24	2.00051
16.25	1.99097
16.26	2.02649
16.27	2.04097
16.28	2.03998
16.29	2.01597
16.3	2.02551
16.31	2.02518
16.32	1.99524
16.33	1.9913
16.34	2.00215
16.35	2.01992
16.36	2.01334
16.37	1.99327
16.38	1.99524
16.39	2.03932
16.4	2.01663
16.41	2.01728
16.42	2.01728
16.43	2.0163
16.44	2.01564
16.45	2.02485
16.46	2.04163
16.47	2.03307
16.48	2.03834
16.49	2.01531
16.5	2.02452
16.51	1.97222
16.52	2.01761
16.53	2.00709
16.54	2.00873
16.55	2.01465
16.56	2.02847
16.57	2.0163
16.58	2.01136
16.59	2.01531
16.6	2.04196
16.61	2.00643
16.62	2.00018
16.63	2.00807
16.64	2.02255
16.65	2.01432
16.66	2.01564
16.67	2.04952
16.68	2.03274
16.69	2.01334
16.7	1.99426
16.71	2.0061
16.72	2.00577
16.73	1.99919
16.74	2.00413
16.75	1.98406
16.76	1.98274
16.77	2.01202
16.78	2.02715
16.79	1.99393
16.8	2.0186
16.81	2.02024
16.82	2.02452
16.83	2.0107
16.84	2.00939
16.85	2.01893
16.86	2.02715
16.87	2.03439
16.88	2.02781
16.89	1.99491
16.9	2.03571
16.91	2.03538
16.92	2.01761
16.93	1.99853
16.94	2.00215
16.95	1.99557
16.96	2.00149
16.97	2.00182
16.98	2.01827
16.99	2.03965
17	2.05117
17.01	2.02814
17.02	2.04788
17.03	2.01202
17.04	2.02123
17.05	2.00116
17.06	2.02353
17.07	2.01367
17.08	2.04163
17.09	2.03505
17.1	2.02551
17.11	2.00676
17.12	2.01038
17.13	2.02551
17.14	2.02946
17.15	2.03571
17.16	2.00807
17.17	2.00643
17.18	2.01663
17.19	2.00248
17.2	1.99195
17.21	2.00972
17.22	1.98274
17.23	2.01399
17.24	2.01399
17.25	2.02123
17.26	2.01202
17.27	2.03307
17.28	2.02913
17.29	1.99426
17.3	2.01169
17.31	2.04788
17.32	2.00116
17.33	2.0084
17.34	2.02946
17.35	2.01893
17.36	1.99985
17.37	2.02024
17.38	2.02814
17.39	1.99524
17.4	1.99064
17.41	2.0061
17.42	2.01761
17.43	2.03176
17.44	2.02649
17.45	2.03044
17.46	2.01235
17.47	1.99985
17.48	1.97386
17.49	2.00116
17.5	2.03505
17.51	2.03307
17.52	2.00248
17.53	2.02288
17.54	2.00544
17.55	2.02814
17.56	2.05873
17.57	2.0538
17.58	2.01367
17.59	2.01992
17.6	2.02551
17.61	2.00084
17.62	2.02781
17.63	2.03735
17.64	2.03077
17.65	2.0084
17.66	2.01268
17.67	2.01827
17.68	2.0038
17.69	1.99031
17.7	2.00807
17.71	2.00873
17.72	2.01367
17.73	2.0107
17.74	1.99985
17.75	1.98965
17.76	1.98307
17.77	2.01367
17.78	2.03209
17.79	2.0334
17.8	1.99755
17.81	2.01597
17.82	2.03801
17.83	2.01136
17.84	2.01695
17.85	2.0209
17.86	2.01334
17.87	2.00314
17.88	1.98801
17.89	2.0061
17.9	2.02156
17.91	2.0459
17.92	2.0334
17.93	2.01663
17.94	2.00577
17.95	2.03867
17.96	2.02748
17.97	1.97682
17.98	1.9709
17.99	2.04722
18	2.03472
18.01	2.02551
18.02	2.00511
18.03	2.02123
18.04	1.9959
18.05	2.02584
18.06	2.0459
18.07	2.02024
18.08	2.02649
18.09	2.05117
18.1	2.01597
18.11	2.01202
18.12	1.98241
18.13	1.98998
18.14	2.00116
18.15	1.99985
18.16	2.01465
18.17	2.0209
18.18	2.02649
18.19	2.01399
18.2	2.01926
18.21	1.99722
18.22	2.01728
18.23	1.9857
18.24	2.01399
18.25	2.01038
18.26	2.01301
18.27	2.02946
18.28	2.02189
18.29	2.02321
18.3	2.0061
18.31	2.02156
18.32	2.00873
18.33	2.01103
18.34	2.02715
18.35	2.01597
18.36	2.02452
18.37	2.03373
18.38	2.02814
18.39	2.03176
18.4	2.02584
18.41	2.01498
18.42	2.02518
18.43	2.00478
18.44	2.00709
18.45	2.04821
18.46	2.0334
18.47	2.02123
18.48	2.03702
18.49	1.9913
18.5	1.99788
18.51	2.01399
18.52	2.04755
18.53	2.01301
18.54	2.05643
18.55	2.03603
18.56	2.01597
18.57	2.0038
18.58	1.99689
18.59	2.00577
18.6	2.03867
18.61	2.01794
18.62	1.99886
18.63	2.01992
18.64	2.04788
18.65	2.01564
18.66	2.01465
18.67	2.01597
18.68	2.0107
18.69	2.02057
18.7	2.01926
18.71	2.00972
18.72	2.00215
18.73	2.01827
18.74	1.99623
18.75	2.01761
18.76	1.98932
18.77	2.00182
18.78	2.00873
18.79	2.01235
18.8	2.02715
18.81	2.0061
18.82	2.0311
18.83	2.01103
18.84	2.02814
18.85	2.03011
18.86	2.01992
18.87	2.00149
18.88	2.03373
18.89	2.02255
18.9	2.01794
18.91	2.01136
18.92	1.99459
18.93	2.02584
18.94	2.039
18.95	2.03571
18.96	2.06465
18.97	2.01959
18.98	2.01005
18.99	2.02748
19	2.0107
19.01	2.02617
19.02	2.02255
19.03	2.02584
19.04	2.03307
19.05	2.02419
19.06	2.00676
19.07	2.00807
19.08	2.01531
19.09	2.00709
19.1	2.01498
19.11	2.03077
19.12	2.02584
19.13	2.02946
19.14	2.00774
19.15	2.03571
19.16	2.02682
19.17	2.03801
19.18	2.01728
19.19	1.99623
19.2	2.02584
19.21	1.99393
19.22	2.01926
19.23	2.02913
19.24	2.02584
19.25	2.00116
19.26	2.03242
19.27	2.01761
19.28	2.03373
19.29	2.00116
19.3	1.98209
19.31	2.01465
19.32	2.00314
19.33	2.05215
19.34	2.01959
19.35	2.00676
19.36	2.0107
19.37	2.01498
19.38	2.00807
19.39	2.00116
19.4	2.01761
19.41	2.01728
19.42	2.01761
19.43	2.01728
19.44	1.99755
19.45	2.01268
19.46	2.0186
19.47	2.0084
19.48	2.01498
19.49	2.01564
19.5	2.01268
19.51	2.00906
19.52	2.02715
19.53	2.03143
19.54	2.02617
19.55	2.02353
19.56	2.00709
19.57	2.01663
19.58	2.03242
19.59	2.01399
19.6	2.02715
19.61	2.01202
19.62	1.98307
19.63	2.01992
19.64	2.0038
19.65	2.00511
19.66	2.0107
19.67	2.01893
19.68	2.00972
19.69	1.99886
19.7	2.01498
19.71	2.03538
19.72	1.99985
19.73	2.02123
19.74	2.00445
19.75	1.99722
19.76	2.0107
19.77	2.03209
19.78	2.03406
19.79	2.05215
19.8	2.0459
19.81	2.03735
19.82	2.01597
19.83	2.0186
19.84	2.02024
19.85	2.00873
19.86	2.0413
19.87	2.0311
19.88	2.01794
19.89	2.02222
19.9	2.02386
19.91	2.01728
19.92	1.98241
19.93	2.0163
19.94	2.0163
19.95	2.0288
19.96	2.02189
19.97	2.03077
19.98	2.01827
19.99	2.02946
20	2.02814
20.01	2.03571
20.02	2.02156
20.03	2.01597
20.04	2.01334
20.05	2.00906
20.06	1.99722
20.07	1.99722
20.08	2.02551
20.09	2.02847
20.1	2.0061
20.11	2.02123
20.12	2.02321
20.13	2.01367
20.14	2.04426
20.15	1.98406
20.16	2.00643
20.17	2.02353
20.18	2.02748
20.19	2.02353
20.2	2.01827
20.21	2.01728
20.22	2.03011
20.23	2.03373
20.24	2.04722
20.25	2.04196
20.26	2.01399
20.27	2.01465
20.28	2.01728
20.29	2.01761
20.3	2.03307
20.31	2.04031
20.32	2.02649
20.33	2.02452
20.34	2.00051
20.35	2.02617
20.36	2.02978
20.37	2.04557
20.38	2.04196
20.39	2.01761
20.4	2.01399
20.41	2.00709
20.42	2.04327
20.43	2.03834
20.44	2.06104
20.45	2.03834
20.46	2.02386
20.47	2.01564
20.48	1.99788
20.49	2.02156
20.5	2.02452
20.51	2.02419
20.52	1.99886
20.53	2.01432
20.54	2.04492
20.55	2.03439
20.56	1.99327
20.57	2.00906
20.58	2.00643
20.59	2.02485
20.6	2.02386
20.61	2.02255
20.62	2.04492
20.63	2.01893
20.64	2.0186
20.65	2.01498
20.66	2.03439
20.67	2.03242
20.68	2.02485
20.69	2.01827
20.7	1.99689
20.71	2.03077
20.72	2.03571
20.73	2.03505
20.74	1.98899
20.75	2.02452
20.76	2.01498
20.77	2.01564
20.78	1.98998
20.79	2.01235
20.8	2.00182
20.81	1.99952
20.82	2.03735
20.83	2.03209
20.84	2.00774
20.85	2.02913
20.86	2.01202
20.87	2.00018
20.88	1.98801
20.89	2.01235
20.9	2.01367
20.91	1.9686
20.92	1.98866
20.93	2.01959
20.94	2.01432
20.95	2.00149
20.96	2.01399
20.97	1.99228
20.98	2.01399
20.99	2.03669
21	2.02847
21.01	2.02353
21.02	2.01334
21.03	1.98866
21.04	2.00577
21.05	2.00807
21.06	2.03505
21.07	2.02617
21.08	2.02321
21.09	2.02288
21.1	2.02847
21.11	2.00939
21.12	2.03242
21.13	2.03307
21.14	2.01761
21.15	2.00215
21.16	1.99886
21.17	2.01334
21.18	2.02946
21.19	2.01992
21.2	2.02485
21.21	2.01367
21.22	2.03143
21.23	2.02156
21.24	2.04163
21.25	2.04294
21.26	2.04327
21.27	2.01827
21.28	2.02057
21.29	2.05182
21.3	2.01564
21.31	2.00676
21.32	2.02452
21.33	2.02978
21.34	1.99985
21.35	1.99755
21.36	2.02946
21.37	2.01827
21.38	2.01005
21.39	2.01498
21.4	2.05939
21.41	2.04228
21.42	2.02913
21.43	2.01399
21.44	2.00709
21.45	1.99886
21.46	2.00742
21.47	1.99788
21.48	2.01432
21.49	2.03735
21.5	2.02715
21.51	2.0334
21.52	2.0163
21.53	2.01695
21.54	2.01992
21.55	2.03472
21.56	2.01202
21.57	1.99064
21.58	2.02189
21.59	2.01959
21.6	2.00807
21.61	1.99459
21.62	2.02156
21.63	2.0288
21.64	2.0538
21.65	2.01893
21.66	2.02847
21.67	2.01728
21.68	2.00873
21.69	2.01399
21.7	2.01399
21.71	2.04196
21.72	2.02156
21.73	2.03932
21.74	2.02617
21.75	2.02222
21.76	2.01367
21.77	2.02156
21.78	2.02222
21.79	2.00478
21.8	2.04196
21.81	2.02781
21.82	2.02057
21.83	2.00347
21.84	2.0561
21.85	2.03768
21.86	2.01498
21.87	2.02978
21.88	2.01367
21.89	2.00807
21.9	2.0186
21.91	2.02156
21.92	2.05544
21.93	2.01103
21.94	2.01301
21.95	2.03307
21.96	2.03735
21.97	2.0561
21.98	2.04656
21.99	2.05906
22	2.02978
22.01	2.02946
22.02	2.02321
22.03	2.03373
22.04	2.01695
22.05	2.02222
22.06	2.00577
22.07	2.01728
22.08	2.00939
22.09	1.99557
22.1	2.00445
22.11	2.02617
22.12	2.00873
22.13	2.05479
22.14	2.02485
22.15	2.0084
22.16	2.02649
22.17	2.01564
22.18	2.0061
22.19	2.0334
22.2	1.99886
22.21	2.01038
22.22	2.02452
22.23	2.01893
22.24	2.01038
22.25	2.01136
22.26	2.01663
22.27	1.98768
22.28	2.00972
22.29	2.00939
22.3	2.01564
22.31	2.02024
22.32	2.03603
22.33	2.02452
22.34	2.03472
22.35	2.04886
22.36	1.99656
22.37	2.01268
22.38	2.01136
22.39	2.01761
22.4	2.0311
22.41	2.02847
22.42	2.02485
22.43	2.0061
22.44	2.02946
22.45	2.02255
22.46	2.00413
22.47	1.98636
22.48	2.00445
22.49	2.02156
22.5	2.02913
22.51	2.00939
22.52	1.9811
22.53	1.98373
22.54	1.99491
22.55	2.01695
22.56	1.99426
22.57	2.02189
22.58	2.03373
22.59	2.02024
22.6	2.00774
22.61	2.00149
22.62	2.02814
22.63	2.02551
22.64	2.00873
22.65	1.98768
22.66	2.01334
22.67	2.00413
22.68	1.99491
22.69	2.0209
22.7	2.00643
22.71	2.01465
22.72	2.01235
22.73	2.02222
22.74	2.00051
22.75	2.00643
22.76	2.01038
22.77	1.98866
22.78	2.03143
22.79	2.01432
22.8	2.00742
22.81	2.00807
22.82	2.02946
22.83	2.01728
22.84	2.01498
22.85	1.99689
22.86	2.02255
22.87	2.04294
22.88	2.03801
22.89	2.02024
22.9	2.02518
22.91	2.02386
22.92	2.02584
22.93	2.03373
22.94	2.02156
22.95	2.03242
22.96	2.02715
22.97	2.0107
22.98	2.00807
22.99	2.00939
23	2.01893
23.01	2.01959
23.02	2.02584
23.03	2.02024
23.04	2.03702
23.05	2.03735
23.06	2.02156
23.07	2.02156
23.08	2.01827
23.09	2.02485
23.1	2.05018
23.11	2.03044
23.12	2.03867
23.13	2.0209
23.14	2.00742
23.15	2.01169
23.16	1.99064
23.17	2.02715
23.18	2.04097
23.19	2.01169
23.2	2.03603
23.21	2.01005
23.22	2.01992
23.23	2.01761
23.24	2.00774
23.25	2.03011
23.26	2.0163
23.27	2.01992
23.28	1.99064
23.29	2.00742
23.3	2.03307
23.31	2.0209
23.32	2.01103
23.33	2.01005
23.34	2.02518
23.35	2.03801
23.36	2.04163
23.37	2.03571
23.38	2.04163
23.39	1.99886
23.4	2.03209
23.41	2.02024
23.42	2.02123
23.43	1.99097
23.44	2.03702
23.45	2.03735
23.46	2.03143
23.47	2.03603
23.48	2.01695
23.49	2.03176
23.5	2.00676
23.51	1.98998
23.52	1.98899
23.53	1.99722
23.54	2.02748
23.55	2.02649
23.56	2.01992
23.57	2.03406
23.58	2.00643
23.59	2.00182
23.6	2.01695
23.61	2.00742
23.62	2.01334
23.63	2.00972
23.64	1.99755
23.65	2.01564
23.66	2.00774
23.67	2.00709
23.68	2.03044
23.69	2.02189
23.7	2.04426
23.71	2.01959
23.72	2.00511
23.73	2.00972
23.74	2.01695
23.75	2.01761
23.76	2.00347
23.77	2.05939
23.78	2.04031
23.79	2.0084
23.8	2.02024
23.81	2.02551
23.82	2.04492
23.83	2.01235
23.84	1.99722
23.85	2.0038
23.86	2.02353
23.87	2.00347
23.88	2.01531
23.89	2.04393
23.9	2.02156
23.91	2.01564
23.92	1.99491
23.93	2.03242
23.94	2.00248
23.95	2.03077
23.96	2.00544
23.97	1.98899
23.98	2.03801
23.99	2.02024
24	2.05084
24.01	2.02419
24.02	2.02353
24.03	1.9982
24.04	2.0163
24.05	2.04196
24.06	1.99886
24.07	2.02814
24.08	2.0084
24.09	2.01564
24.1	2.04525
24.11	2.03636
24.12	2.03044
24.13	2.01136
24.14	2.00248
24.15	2.0288
24.16	2.02518
24.17	2.02353
24.18	2.02913
24.19	2.06038
24.2	2.04097
24.21	2.02814
24.22	2.02156
24.23	2.00314
24.24	2.03538
24.25	2.02057
24.26	1.99393
24.27	2.01827
24.28	2.04163
24.29	2.0334
24.3	2.02353
24.31	2.02386
24.32	2.05676
24.33	2.03932
24.34	2.04327
24.35	2.00314
24.36	2.0061
24.37	2.01728
24.38	2.02649
24.39	2.03472
24.4	2.01268
24.41	2.00215
24.42	2.02123
24.43	2.06136
24.44	2.02189
24.45	2.02978
24.46	2.03044
24.47	2.01498
24.48	2.01564
24.49	2.01564
24.5	2.03176
24.51	2.02485
24.52	2.01235
24.53	2.01202
24.54	2.03274
24.55	2.02189
24.56	2.03044
24.57	2.01728
24.58	2.00116
24.59	2.01794
24.6	2.01301
24.61	2.00873
24.62	2.0038
24.63	2.00051
24.64	1.99853
24.65	2.01761
24.66	2.0334
24.67	2.03077
24.68	2.02946
24.69	2.05446
24.7	2.05248
24.71	2.02748
24.72	1.99788
24.73	1.99853
24.74	2.02485
24.75	2.01235
24.76	2.00413
24.77	2.03274
24.78	2.02978
24.79	2.00511
24.8	2.01695
24.81	1.99985
24.82	2.01728
24.83	2.03077
24.84	2.03768
24.85	2.0084
24.86	2.02649
24.87	2.01827
24.88	2.03274
24.89	2.01136
24.9	2.02682
24.91	2.02156
24.92	2.06301
24.93	2.01959
24.94	2.02024
24.95	2.00413
24.96	2.00478
24.97	2.03176
24.98	2.00413
24.99	2.03406
25	2.04722
25.01	2.03307
25.02	2.00972
25.03	2.01103
25.04	2.0038
25.05	1.99853
25.06	2.02156
25.07	2.00314
25.08	2.03636
25.09	2.04557
25.1	2.02847
25.11	2.02485
25.12	2.01235
25.13	1.99722
25.14	2.04228
25.15	2.02781
25.16	2.00774
25.17	2.02551
25.18	2.02057
25.19	2.00084
25.2	2.01432
25.21	2.02353
25.22	2.02682
25.23	2.02386
25.24	2.02255
25.25	2.04097
25.26	2.02057
25.27	1.97945
25.28	1.9936
25.29	2.02288
25.3	1.9982
25.31	2.00281
25.32	2.00182
25.33	2.01399
25.34	2.02946
25.35	2.02551
25.36	2.01794
25.37	2.00906
25.38	2.04426
25.39	2.0061
25.4	2.02024
25.41	2.04722
25.42	2.01992
25.43	2.01432
25.44	2.03571
25.45	2.00906
25.46	2.00939
25.47	2.05479
25.48	2.01564
25.49	2.04952
25.5	2.05281
25.51	2.02123
25.52	2.02649
25.53	2.02682
25.54	2.03011
25.55	2.0209
25.56	2.04689
25.57	2.02288
25.58	2.0084
25.59	2.01235
25.6	2.03242
25.61	2.03998
25.62	2.02123
25.63	2.0209
25.64	1.99886
25.65	1.99853
25.66	2.0107
25.67	2.01268
25.68	1.98998
25.69	2.03176
25.7	2.03735
25.71	2.00445
25.72	2.01169
25.73	1.99689
25.74	1.99491
25.75	1.99064
25.76	2.01564
25.77	2.03472
25.78	2.02518
25.79	2.00939
25.8	1.98998
25.81	2.00149
25.82	1.98998
25.83	2.02156
25.84	2.02321
25.85	2.03735
25.86	2.03472
25.87	2.02781
25.88	2.02255
25.89	1.99557
25.9	2.02189
25.91	2.00445
25.92	1.99097
25.93	2.01761
25.94	2.02814
25.95	2.03505
25.96	2.03307
25.97	2.0311
25.98	2.00248
25.99	2.01597
26	1.99393
26.01	2.00643
26.02	2.01761
26.03	2.02814
26.04	2.02156
26.05	1.99656
26.06	2.01005
26.07	2.00774
26.08	2.00347
26.09	2.05018
26.1	2.00511
26.11	2.02057
26.12	2.01103
26.13	2.00709
26.14	2.01432
26.15	2.01136
26.16	2.00774
26.17	2.00544
26.18	2.01926
26.19	2.02452
26.2	2.01827
26.21	2.02156
26.22	2.01531
26.23	2.01827
26.24	2.01038
26.25	2.02913
26.26	2.00018
26.27	2.0311
26.28	2.02321
26.29	2.01103
26.3	2.02255
26.31	2.02222
26.32	2.01334
26.33	2.02156
26.34	2.01926
26.35	2.02321
26.36	2.01399
26.37	2.01202
26.38	2.02946
26.39	2.02419
26.4	2.0163
26.41	1.99163
26.42	2.01959
26.43	2.02156
26.44	2.01465
26.45	2.02649
26.46	2.00873
26.47	2.02748
26.48	2.01728
26.49	2.00544
26.5	2.00084
26.51	2.02649
26.52	2.05248
26.53	2.02452
26.54	1.99195
26.55	2.00116
26.56	2.01399
26.57	2.04163
26.58	2.01235
26.59	2.03603
26.6	2.02024
26.61	2.02386
26.62	2.0163
26.63	2.02386
26.64	2.0311
26.65	2.03603
26.66	2.01926
26.67	1.99755
26.68	2.0107
26.69	2.01432
26.7	2.01597
26.71	2.01038
26.72	2.01038
26.73	2.00149
26.74	2.01334
26.75	2.02715
26.76	2.05182
26.77	2.01367
26.78	2.02024
26.79	1.9959
26.8	2.00281
26.81	1.99327
26.82	2.00544
26.83	2.03932
26.84	2.03439
26.85	2.00939
26.86	1.99228
26.87	2.01367
26.88	2.00742
26.89	2.02978
26.9	2.0413
26.91	1.98899
26.92	1.99524
26.93	2.01597
26.94	2.04557
26.95	2.01498
26.96	2.02814
26.97	2.02748
26.98	2.04557
26.99	2.04755
27	2.02978
27.01	2.03603
27.02	2.0311
27.03	2.03011
27.04	2.01465
27.05	2.01827
27.06	2.03011
27.07	2.0163
27.08	2.00906
27.09	2.00972
27.1	2.03143
27.11	2.00215
27.12	1.99459
27.13	2.01103
27.14	1.99755
27.15	2.00544
27.16	2.01597
27.17	2.00906
27.18	2.01005
27.19	2.01794
27.2	2.02288
27.21	1.99524
27.22	2.00281
27.23	2.04163
27.24	2.04656
27.25	2.02781
27.26	2.04788
27.27	2.03077
27.28	2.02288
27.29	2.00149
27.3	2.00972
27.31	2.0209
27.32	2.01103
27.33	2.00577
27.34	1.98899
27.35	1.98801
27.36	1.98866
27.37	2.01235
27.38	2.0288
27.39	2.02255
27.4	2.05018
27.41	2.02419
27.42	1.98505
27.43	1.97814
27.44	2.00018
27.45	2.01498
27.46	2.01367
27.47	2.00347
27.48	2.03176
27.49	2.01334
27.5	2.01202
27.51	2.02024
27.52	2.03472
27.53	2.039
27.54	2.0186
27.55	1.99393
27.56	1.97156
27.57	1.99195
27.58	2.01959
27.59	2.02288
27.6	2.01005
27.61	2.05281
27.62	1.98866
27.63	2.02353
27.64	2.0038
27.65	2.01399
27.66	2.02814
27.67	2.01432
27.68	2.01926
27.69	2.01103
27.7	2.02419
27.71	1.99426
27.72	2.00182
27.73	2.03373
27.74	1.99294
27.75	2.00314
27.76	2.0163
27.77	1.99919
27.78	2.00445
27.79	2.01564
27.8	2.00807
27.81	2.0311
27.82	2.03209
27.83	2.03834
27.84	2.03998
27.85	2.01761
27.86	2.01794
27.87	2.00084
27.88	1.99886
27.89	2.00774
27.9	2.02518
27.91	1.99755
27.92	2.03373
27.93	2.02913
27.94	2.01169
27.95	2.01992
27.96	2.00281
27.97	2.00413
27.98	2.00972
27.99	2.01827
28	2.01038
28.01	2.01926
28.02	2.00873
28.03	2.00544
28.04	2.00807
28.05	2.00544
28.06	2.02682
28.07	2.01959
28.08	2.02057
28.09	2.03998
28.1	2.04228
28.11	2.00709
28.12	2.01334
28.13	2.05676
28.14	2.03406
28.15	2.00742
28.16	2.00478
28.17	1.99524
28.18	2.02649
28.19	2.00215
28.2	2.01498
28.21	2.03077
28.22	2.0459
28.23	2.02288
28.24	2.0209
28.25	2.01169
28.26	2.04228
28.27	2.02748
28.28	2.04261
28.29	2.00215
28.3	1.99886
28.31	2.00544
28.32	1.99689
28.33	2.00445
28.34	2.01367
28.35	2.05051
28.36	2.01827
28.37	2.0107
28.38	2.00281
28.39	2.01399
28.4	1.99228
28.41	2.0038
28.42	2.00643
28.43	2.04097
28.44	2.00511
28.45	2.02518
28.46	2.00807
28.47	2.02189
28.48	2.00676
28.49	1.99689
28.5	2.01663
28.51	1.99426
28.52	1.99853
28.53	1.99426
28.54	2.01926
28.55	2.01893
28.56	2.01038
28.57	1.99097
28.58	2.01728
28.59	2.02781
28.6	2.00544
28.61	1.9959
28.62	2.01597
28.63	2.03538
28.64	2.00544
28.65	2.01597
28.66	2.02649
28.67	2.03439
28.68	2.02255
28.69	2.01827
28.7	2.02781
28.71	2.02682
28.72	1.97715
28.73	1.99623
28.74	2.04031
28.75	2.0061
28.76	2.03209
28.77	2.02189
28.78	2.00018
28.79	1.99261
28.8	2.03538
28.81	2.02847
28.82	2.03636
28.83	2.02748
28.84	2.02321
28.85	2.01893
28.86	2.01597
28.87	2.01432
28.88	2.05511
28.89	2.03636
28.9	2.01893
28.91	2.039
28.92	2.02255
28.93	2.02156
28.94	2.01432
28.95	2.02946
28.96	2.03439
28.97	2.01399
28.98	2.00314
28.99	2.04459
29	2.03011
29.01	2.0311
29.02	2.04788
29.03	2.02123
29.04	2.03209
29.05	2.04393
29.06	2.01926
29.07	2.03373
29.08	2.02814
29.09	2.00084
29.1	2.02649
29.11	2.03274
29.12	2.03143
29.13	2.01432
29.14	2.01103
29.15	2.02123
29.16	2.0163
29.17	2.00906
29.18	2.0288
29.19	2.02255
29.2	2.01827
29.21	2.02255
29.22	2.04031
29.23	2.01169
29.24	2.00807
29.25	1.99163
29.26	1.99294
29.27	2.0038
29.28	2.01597
29.29	2.02518
29.3	2.01005
29.31	2.00347
29.32	2.02913
29.33	2.02847
29.34	2.0288
29.35	2.02781
29.36	2.02748
29.37	2.02255
29.38	2.02682
29.39	2.03011
29.4	2.00939
29.41	2.02715
29.42	2.03077
29.43	2.01334
29.44	1.97814
29.45	1.98735
29.46	2.01367
29.47	2.01761
29.48	2.00445
29.49	2.039
29.5	2.02353
29.51	2.03176
29.52	2.02814
29.53	2.03571
29.54	2.04163
29.55	2.00314
29.56	2.01334
29.57	2.01992
29.58	1.99952
29.59	2.0413
29.6	2.04163
29.61	2.02584
29.62	2.01761
29.63	2.01399
29.64	2.03965
29.65	2.02189
29.66	2.03044
29.67	2.02913
29.68	2.01695
29.69	2.03143
29.7	2.03669
29.71	2.04163
29.72	2.03044
29.73	2.01794
29.74	2.02682
29.75	2.01301
29.76	2.0311
29.77	2.02255
29.78	2.00676
29.79	2.02057
29.8	2.01695
29.81	1.99294
29.82	1.98636
29.83	1.99853
29.84	2.03373
29.85	2.04163
29.86	2.05281
29.87	2.01597
29.88	2.05051
29.89	2.03538
29.9	2.00643
29.91	2.01498
29.92	2.02452
29.93	2.02649
29.94	2.01103
29.95	2.00182
29.96	2.00149
29.97	2.00347
29.98	2.0107
29.99	2.00281
30	2.01992
30.01	1.98373
30.02	2.02189
30.03	2.01465
30.04	2.0288
30.05	2.02518
30.06	2.01597
30.07	1.98965
30.08	2.0163
30.09	1.98899
30.1	2.0038
30.11	2.00116
30.12	2.01531
30.13	2.02189
30.14	2.02584
30.15	2.02057
30.16	2.05248
30.17	2.02748
30.18	2.01498
30.19	2.02419
30.2	1.99327
30.21	2.02386
30.22	2.03439
30.23	2.05906
30.24	2.00544
30.25	2.01597
30.26	2.03307
30.27	2.01038
30.28	2.01794
30.29	2.01597
30.3	2.03801
30.31	2.03603
30.32	1.99853
30.33	2.00676
30.34	2.03143
30.35	2.01235
30.36	2.01038
30.37	2.02781
30.38	2.02847
30.39	2.04097
30.4	1.98899
30.41	1.99031
30.42	2.04261
30.43	2.02288
30.44	1.98143
30.45	2.01531
30.46	2.01893
30.47	2.02222
30.48	2.00051
30.49	1.98209
30.5	2.02024
30.51	2.02617
30.52	2.03044
30.53	2.03274
30.54	2.01728
30.55	1.99919
30.56	1.99031
30.57	2.01959
30.58	2.01235
30.59	2.00478
30.6	2.00873
30.61	2.02649
30.62	2.0038
30.63	2.01169
30.64	2.02748
30.65	1.98472
30.66	2.01268
30.67	2.0061
30.68	2.02617
30.69	2.02946
30.7	2.01136
30.71	2.00873
30.72	2.03209
30.73	1.99459
30.74	1.98439
30.75	1.99491
30.76	2.01399
30.77	2.01531
30.78	1.98274
30.79	2.00116
30.8	2.03274
30.81	2.01103
30.82	1.99327
30.83	2.0038
30.84	2.01531
30.85	2.00709
30.86	2.03603
30.87	2.0413
30.88	2.01728
30.89	2.0163
30.9	1.99064
30.91	1.99985
30.92	2.00445
30.93	2.02024
30.94	2.00314
30.95	2.00478
30.96	1.9834
30.97	1.9857
30.98	2.00314
30.99	2.03702
31	2.00544
31.01	2.00051
31.02	2.01268
31.03	2.01926
31.04	1.99459
31.05	1.99623
31.06	2.02617
31.07	2.01399
31.08	2.03044
31.09	2.0334
31.1	2.02353
31.11	1.99557
31.12	2.00445
31.13	2.00347
31.14	2.00149
31.15	2.05314
31.16	2.02485
31.17	1.98603
31.18	2.0288
31.19	2.02189
31.2	2.039
31.21	2.03307
31.22	2.01564
31.23	2.03044
31.24	2.01794
31.25	2.02222
31.26	2.01235
31.27	2.01531
31.28	2.02353
31.29	2.01663
31.3	1.98406
31.31	2.01301
31.32	2.01728
31.33	1.99952
31.34	2.01005
31.35	2.0107
31.36	2.00215
31.37	2.00116
31.38	2.03274
31.39	1.99656
31.4	2.02057
31.41	2.02748
31.42	2.00709
31.43	2.01301
31.44	2.01465
31.45	2.01564
31.46	2.01531
31.47	2.01695
31.48	2.02781
31.49	2.01564
31.5	2.01827
31.51	2.02814
31.52	2.01827
31.53	2.00939
31.54	2.02452
31.55	2.00314
31.56	1.99919
31.57	2.03274
31.58	2.02419
31.59	1.99689
31.6	1.99689
31.61	2.00676
31.62	1.99459
31.63	2.00577
31.64	2.04623
31.65	1.99853
31.66	2.00643
31.67	2.01399
31.68	2.01235
31.69	2.01992
31.7	2.00873
31.71	2.01432
31.72	2.02847
31.73	2.02682
31.74	2.02649
31.75	2.01498
31.76	2.03768
31.77	2.0436
31.78	2.01926
31.79	2.01761
31.8	2.03669
31.81	2.00873
31.82	2.01268
31.83	2.0107
31.84	2.01959
31.85	1.99327
31.86	2.03077
31.87	2.03439
31.88	2.04525
31.89	2.02748
31.9	2.01268
31.91	2.0084
31.92	2.02057
31.93	2.01268
31.94	2.02781
31.95	2.03242
31.96	2.05676
31.97	2.03538
31.98	2.02057
31.99	2.03834
32	2.00445
32.01	2.00478
32.02	2.03373
32.03	2.01103
32.04	2.0107
32.05	2.02156
32.06	2.02123
32.07	2.02386
32.08	2.03209
32.09	2.01103
32.1	2.01169
32.11	2.01597
32.12	2.03702
32.13	2.01367
32.14	2.02288
32.15	2.03669
32.16	2.02978
32.17	2.02715
32.18	2.01761
32.19	2.03307
32.2	2.04064
32.21	2.01399
32.22	2.03242
32.23	2.03044
32.24	2.00774
32.25	1.99886
32.26	2.02156
32.27	1.98406
32.28	2.01926
32.29	2.02321
32.3	2.03077
32.31	2.02222
32.32	2.01498
32.33	2.01038
32.34	2.01136
32.35	1.98998
32.36	2.01465
32.37	2.0163
32.38	2.01564
32.39	2.02682
32.4	1.98537
32.41	2.01334
32.42	2.00709
32.43	1.9913
32.44	1.99195
32.45	1.98406
32.46	2.00807
32.47	2.01334
32.48	2.02617
32.49	2.02321
32.5	2.00413
32.51	2.01794
32.52	2.00939
32.53	2.02156
32.54	2.03044
32.55	2.00347
32.56	2.01498
32.57	2.02518
32.58	2.04722
32.59	2.03669
32.6	2.03505
32.61	2.02353
32.62	1.98899
32.63	1.99557
32.64	1.99327
32.65	2.00413
32.66	2.01465
32.67	2.03274
32.68	2.00347
32.69	2.01465
32.7	2.0288
32.71	2.03439
32.72	2.02288
32.73	2.02946
32.74	2.00972
32.75	2.02288
32.76	2.03373
32.77	2.04196
32.78	2.01959
32.79	2.04459
32.8	2.01597
32.81	2.0084
32.82	2.00939
32.83	2.02814
32.84	2.0459
32.85	2.0061
32.86	2.02978
32.87	2.03176
32.88	2.01202
32.89	2.03274
32.9	2.01827
32.91	2.04426
32.92	2.0538
32.93	2.0538
32.94	2.00807
32.95	2.0311
32.96	2.03669
32.97	2.01827
32.98	1.99557
32.99	2.00873
33	2.02419
33.01	2.01992
33.02	2.00116
33.03	2.01728
33.04	2.04919
33.05	2.03176
33.06	1.99327
33.07	2.01334
33.08	2.00511
33.09	2.04261
33.1	2.02321
33.11	2.00478
33.12	2.01038
33.13	2.0038
33.14	2.02518
33.15	2.00445
33.16	2.00774
33.17	2.04426
33.18	2.01531
33.19	2.00478
33.2	2.02024
33.21	1.9982
33.22	2.00972
33.23	2.04525
33.24	2.00906
33.25	1.99788
33.26	2.01794
33.27	2.02452
33.28	2.01432
33.29	2.00149
33.3	2.03077
33.31	2.01038
33.32	2.03176
33.33	2.02715
33.34	2.02123
33.35	2.02255
33.36	2.02946
33.37	2.03242
33.38	2.00478
33.39	2.01038
33.4	1.98834
33.41	2.0209
33.42	2.04853
33.43	2.02452
33.44	2.00149
33.45	1.99689
33.46	2.02222
33.47	2.02715
33.48	2.00906
33.49	2.02288
33.5	2.02156
33.51	2.01465
33.52	2.02057
33.53	2.00084
33.54	2.03274
33.55	2.02386
33.56	2.01005
33.57	2.03801
33.58	2.03932
33.59	2.01235
33.6	2.0209
33.61	2.0163
33.62	2.01038
33.63	2.01268
33.64	2.03669
33.65	2.01005
33.66	2.02617
33.67	2.04064
33.68	2.02978
33.69	2.03603
33.7	2.02978
33.71	2.03538
33.72	2.02123
33.73	2.04228
33.74	2.01992
33.75	2.01169
33.76	2.02452
33.77	2.00972
33.78	2.00577
33.79	2.03801
33.8	2.02288
33.81	2.0311
33.82	2.03242
33.83	2.03077
33.84	2.00478
33.85	2.00018
33.86	1.98866
33.87	1.98965
33.88	2.03505
33.89	2.01005
33.9	1.9834
33.91	2.0163
33.92	2.01334
33.93	2.00413
33.94	2.02024
33.95	2.00873
33.96	2.02452
33.97	2.02255
33.98	2.01498
33.99	2.00478
34	2.03636
34.01	2.06367
34.02	2.04722
34.03	2.00413
34.04	1.99491
34.05	1.99788
34.06	1.99557
34.07	2.01103
34.08	2.01827
34.09	2.03538
34.1	2.03702
34.11	2.0584
34.12	2.01235
34.13	1.99459
34.14	2.00709
34.15	2.00807
34.16	2.02584
34.17	2.01761
34.18	2.02386
34.19	2.02551
34.2	2.01761
34.21	2.01038
34.22	2.01038
34.23	2.03242
34.24	2.03406
34.25	2.0107
34.26	2.02288
34.27	2.02024
34.28	2.02551
34.29	2.00807
34.3	2.0311
34.31	2.01926
34.32	2.01169
34.33	2.01728
34.34	2.01827
34.35	2.01399
34.36	1.99228
34.37	1.99985
34.38	2.03472
34.39	2.02715
34.4	2.04985
34.41	2.03735
34.42	2.03505
34.43	2.03538
34.44	1.99919
34.45	2.01334
34.46	2.0209
34.47	2.02715
34.48	2.0334
34.49	2.03965
34.5	2.00084
34.51	2.00643
34.52	2.01334
34.53	2.03505
34.54	2.03669
34.55	2.01465
34.56	2.00314
34.57	2.0038
34.58	1.99952
34.59	2.00149
34.6	2.03932
34.61	2.02649
34.62	2.01399
34.63	2.03538
34.64	2.00511
34.65	2.0038
34.66	2.02978
34.67	2.00939
34.68	1.99459
34.69	1.98735
34.7	2.03044
34.71	2.02156
34.72	2.03867
34.73	2.02156
34.74	1.99524
34.75	2.0186
34.76	2.04525
34.77	2.01334
34.78	2.03571
34.79	2.01301
34.8	2.02715
34.81	2.01959
34.82	2.02649
34.83	2.01728
34.84	2.03209
34.85	1.99788
34.86	1.99491
34.87	2.03735
34.88	2.02123
34.89	2.01103
34.9	2.01301
34.91	2.02452
34.92	2.02748
34.93	2.02419
34.94	2.03603
34.95	1.99853
34.96	2.01301
34.97	2.04557
34.98	2.03965
34.99	2.00939
35	2.02814
35.01	2.01301
35.02	2.01498
35.03	2.02682
35.04	2.03242
35.05	2.01959
35.06	2.01202
35.07	1.99097
35.08	2.01432
35.09	2.02057
35.1	2.00413
35.11	1.99524
35.12	2.02715
35.13	2.03965
35.14	2.01169
35.15	2.02353
35.16	2.03965
35.17	2.03702
35.18	2.02123
35.19	1.9936
35.2	2.00149
35.21	2.01926
35.22	2.02353
35.23	2.05215
35.24	2.00939
35.25	2.01038
35.26	2.05281
35.27	2.02386
35.28	2.01399
35.29	2.01465
35.3	1.98439
35.31	2.039
35.32	2.03834
35.33	2.03735
35.34	2.05051
35.35	2.03669
35.36	2.01728
35.37	2.01465
35.38	2.02123
35.39	2.01103
35.4	2.02321
35.41	2.01893
35.42	2.01498
35.43	2.02847
35.44	2.02419
35.45	2.00906
35.46	1.99557
35.47	2.02024
35.48	1.99557
35.49	1.98603
35.5	2.01761
35.51	2.00544
35.52	2.01695
35.53	1.98472
35.54	2.02419
35.55	2.02978
35.56	2.01498
35.57	2.02156
35.58	2.02748
35.59	2.00643
35.6	2.02123
35.61	2.03307
35.62	2.03143
35.63	2.01959
35.64	2.01103
35.65	2.02452
35.66	2.02255
35.67	2.03472
35.68	2.02715
35.69	2.02222
35.7	1.9982
35.71	2.00643
35.72	2.00676
35.73	2.01334
35.74	1.99788
35.75	1.98537
35.76	1.98702
35.77	2.04722
35.78	2.05873
35.79	2.0538
35.8	2.02978
35.81	2.01728
35.82	2.01695
35.83	2.02057
35.84	2.03669
35.85	2.03735
35.86	2.02419
35.87	2.03636
35.88	2.0163
35.89	2.0084
35.9	2.01794
35.91	2.00709
35.92	2.00807
35.93	2.0288
35.94	2.01728
35.95	2.00281
35.96	2.00281
35.97	2.05051
35.98	2.03932
35.99	2.01992
36	2.01959
36.01	2.02419
36.02	2.01268
36.03	2.0413
36.04	2.02123
36.05	2.01695
36.06	2.01005
36.07	2.01695
36.08	2.04228
36.09	2.05182
36.1	2.04163
36.11	2.03242
36.12	2.05775
36.13	2.03242
36.14	2.01926
36.15	2.03373
36.16	2.02057
36.17	1.98472
36.18	1.99064
36.19	2.00939
36.2	2.01169
36.21	2.0163
36.22	2.00742
36.23	2.02057
36.24	2.01893
36.25	1.99524
36.26	2.01531
36.27	2.00742
36.28	2.0186
36.29	2.01827
36.3	2.01301
36.31	2.00116
36.32	2.01268
36.33	2.02617
36.34	2.03538
36.35	2.02649
36.36	2.01465
36.37	1.99722
36.38	2.00149
36.39	2.00215
36.4	2.01465
36.41	1.9959
36.42	2.00084
36.43	2.02057
36.44	2.05775
36.45	2.02288
36.46	2.00906
36.47	2.02321
36.48	2.01038
36.49	2.01399
36.5	2.00116
36.51	2.00577
36.52	2.03044
36.53	2.02485
36.54	2.03373
36.55	2.00347
36.56	2.0288
36.57	2.02485
36.58	2.02386
36.59	2.0209
36.6	2.02222
36.61	2.03801
36.62	2.03406
36.63	2.039
36.64	2.02123
36.65	2.01301
36.66	2.01367
36.67	1.9982
36.68	2.02353
36.69	2.01202
36.7	2.04064
36.71	2.0311
36.72	2.02649
36.73	2.02057
36.74	2.01334
36.75	2.00643
36.76	2.00116
36.77	2.00511
36.78	2.01301
36.79	1.99294
36.8	2.0038
36.81	2.00215
36.82	2.02189
36.83	2.00544
36.84	2.03242
36.85	2.039
36.86	2.05511
36.87	2.05314
36.88	2.02255
36.89	2.02353
36.9	2.01038
36.91	1.9857
36.92	2.00906
36.93	2.01992
36.94	1.99294
36.95	2.02353
36.96	2.03538
36.97	2.01202
36.98	2.04327
36.99	2.04031
37	2.02551
37.01	2.03143
37.02	2.00018
37.03	2.02715
37.04	2.03274
37.05	2.0515
37.06	2.0311
37.07	2.03011
37.08	2.02518
37.09	2.01268
37.1	2.01827
37.11	2.04163
37.12	2.06597
37.13	2.00314
37.14	2.01103
37.15	2.0459
37.16	2.02715
37.17	2.03242
37.18	2.01235
37.19	2.00544
37.2	2.07025
37.21	2.01728
37.22	2.02978
37.23	2.02814
37.24	2.01926
37.25	2.01794
37.26	1.98834
37.27	2.00643
37.28	2.02814
37.29	2.01827
37.3	2.01663
37.31	2.039
37.32	2.03768
37.33	2.01103
37.34	2.01893
37.35	2.02156
37.36	2.0163
37.37	2.03735
37.38	2.0107
37.39	1.98636
37.4	2.01268
37.41	1.99426
37.42	2.01169
37.43	2.02222
37.44	2.01136
37.45	2.02946
37.46	2.03636
37.47	2.02386
37.48	2.01465
37.49	2.00709
37.5	2.01334
37.51	2.00182
37.52	2.01893
37.53	2.03143
37.54	2.03143
37.55	2.01005
37.56	2.02123
37.57	2.02419
37.58	2.03176
37.59	2.0311
37.6	2.03176
37.61	2.02814
37.62	2.03603
37.63	2.03834
37.64	2.02649
37.65	2.0061
37.66	2.00215
37.67	2.0209
37.68	2.03636
37.69	2.03176
37.7	2.00577
37.71	1.99097
37.72	2.01992
37.73	2.02978
37.74	2.01301
37.75	2.00742
37.76	2.02649
37.77	2.01103
37.78	2.03011
37.79	2.00807
37.8	2.00478
37.81	2.01465
37.82	2.01761
37.83	2.0061
37.84	2.01038
37.85	2.03768
37.86	2.00906
37.87	2.01268
37.88	1.99327
37.89	2.01399
37.9	2.02649
37.91	2.02584
37.92	2.00544
37.93	2.01794
37.94	2.01794
37.95	2.02222
37.96	2.05281
37.97	2.00709
37.98	2.03406
37.99	2.03571
38	2.03209
38.01	2.01959
38.02	2.0209
38.03	2.02123
38.04	2.01235
38.05	2.00511
38.06	2.03801
38.07	2.02682
38.08	2.00643
38.09	2.02781
38.1	1.9982
38.11	2.01926
38.12	2.00248
38.13	2.01334
38.14	2.01136
38.15	2.01959
38.16	2.04393
38.17	2.01367
38.18	2.00051
38.19	2.0163
38.2	2.00084
38.21	2.02978
38.22	2.04459
38.23	2.03044
38.24	1.99919
38.25	2.02617
38.26	2.03998
38.27	2.039
38.28	2.00807
38.29	2.02419
38.3	2.02518
38.31	1.99853
38.32	2.01235
38.33	2.01695
38.34	2.0288
38.35	2.00511
38.36	2.00873
38.37	1.99656
38.38	2.03702
38.39	2.0413
38.4	2.02222
38.41	2.03011
38.42	2.01202
38.43	2.03932
38.44	2.03472
38.45	1.99097
38.46	2.00116
38.47	2.03077
38.48	2.02649
38.49	2.00248
38.5	1.98472
38.51	2.02814
38.52	2.02551
38.53	2.02814
38.54	2.01564
38.55	2.02518
38.56	1.97419
38.57	2.00676
38.58	2.03242
38.59	2.02649
38.6	2.02814
38.61	2.02485
38.62	2.02617
38.63	2.00906
38.64	2.04393
38.65	2.05051
38.66	2.03307
38.67	2.0288
38.68	2.02024
38.69	2.03932
38.7	2.00511
38.71	2.00478
38.72	2.01498
38.73	2.01399
38.74	2.02419
38.75	2.02946
38.76	2.00182
38.77	2.01235
38.78	2.02682
38.79	2.01794
38.8	2.01432
38.81	2.01959
38.82	2.03373
38.83	2.0288
38.84	2.02156
38.85	2.02222
38.86	2.01663
38.87	2.01597
38.88	2.04031
38.89	2.03505
38.9	1.96761
38.91	2.00314
38.92	2.01367
38.93	2.01136
38.94	2.0311
38.95	2.03702
38.96	2.02222
38.97	2.0311
38.98	2.00577
38.99	2.0209
39	1.99557
39.01	2.0334
39.02	2.02715
39.03	2.00873
39.04	2.01202
39.05	2.01597
39.06	1.99689
39.07	2.01564
39.08	2.03011
39.09	2.03472
39.1	2.03274
39.11	2.01136
39.12	2.03538
39.13	2.02057
39.14	2.03768
39.15	2.00807
39.16	2.02978
39.17	2.02222
39.18	2.01695
39.19	2.00281
39.2	2.01202
39.21	2.03538
39.22	2.01169
39.23	2.00709
39.24	2.04393
39.25	1.99327
39.26	2.01959
39.27	2.03143
39.28	2.02617
39.29	2.01301
39.3	1.98899
39.31	2.02288
39.32	2.01268
39.33	2.02288
39.34	2.03143
39.35	1.99327
39.36	2.01498
39.37	2.01663
39.38	2.00972
39.39	2.01597
39.4	2.02978
39.41	2.0436
39.42	2.03472
39.43	2.01531
39.44	2.02978
39.45	2.01663
39.46	2.0061
39.47	1.9788
39.48	1.98669
39.49	2.01465
39.5	2.00215
39.51	2.01136
39.52	2.01531
39.53	2.0107
39.54	2.03735
39.55	2.02682
39.56	2.01235
39.57	2.00873
39.58	2.0061
39.59	1.98801
39.6	1.98899
39.61	2.01136
39.62	2.039
39.63	2.0413
39.64	2.0209
39.65	2.01103
39.66	2.02715
39.67	2.02419
39.68	2.01498
39.69	2.00544
39.7	2.00544
39.71	1.99656
39.72	1.99853
39.73	2.02255
39.74	1.99788
39.75	2.01301
39.76	2.02222
39.77	2.02781
39.78	2.04755
39.79	2.03176
39.8	1.99853
39.81	2.03176
39.82	2.01893
39.83	2.03735
39.84	2.01992
39.85	2.02353
39.86	2.04031
39.87	2.02682
39.88	2.01334
39.89	1.9913
39.9	2.02123
39.91	2.01597
39.92	1.99393
39.93	2.00478
39.94	2.03472
39.95	2.0186
39.96	1.99853
39.97	2.01564
39.98	2.01564
39.99	2.02715
40	2.01564
40.01	2.02715
40.02	2.01531
40.03	2.02847
40.04	2.04656
40.05	2.01893
40.06	2.04853
40.07	2.01038
40.08	2.01531
40.09	2.01202
40.1	2.01334
40.11	2.02288
40.12	2.02485
40.13	1.99524
40.14	2.03603
40.15	2.02847
40.16	2.0107
40.17	2.03768
40.18	2.0459
40.19	2.01827
40.2	1.98702
40.21	1.98176
40.22	2.02485
40.23	2.03472
40.24	1.99623
40.25	2.02386
40.26	2.0311
40.27	2.02715
40.28	2.02156
40.29	2.03603
40.3	2.02386
40.31	2.01531
40.32	2.01498
40.33	2.02288
40.34	2.0515
40.35	2.02913
40.36	2.04294
40.37	2.04261
40.38	1.99985
40.39	2.01695
40.4	2.03801
40.41	2.02617
40.42	2.0163
40.43	2.07748
40.44	2.02353
40.45	2.0186
40.46	2.03242
40.47	2.01893
40.48	1.9913
40.49	2.02123
40.5	2.01169
40.51	2.00281
40.52	2.02222
40.53	2.03636
40.54	2.01136
40.55	2.00116
40.56	2.00478
40.57	1.99689
40.58	1.9982
40.59	1.99557
40.6	2.02255
40.61	2.00906
40.62	2.00643
40.63	2.01399
40.64	2.01498
40.65	1.99195
40.66	2.00643
40.67	2.04985
40.68	2.02814
40.69	2.00774
40.7	2.01663
40.71	2.01103
40.72	2.03011
40.73	2.02288
40.74	2.03209
40.75	2.03998
40.76	2.03439
40.77	2.00149
40.78	2.03867
40.79	2.039
40.8	2.0288
40.81	1.99031
40.82	2.01663
40.83	2.03077
40.84	2.00873
40.85	2.01531
40.86	2.04623
40.87	2.039
40.88	2.02452
40.89	2.00018
40.9	2.00347
40.91	2.06005
40.92	2.03011
40.93	2.01564
40.94	2.00742
40.95	2.02913
40.96	2.02419
40.97	2.00018
40.98	2.03538
40.99	2.01663
41	2.02255
41.01	2.03669
41.02	2.02024
41.03	1.99788
41.04	2.03176
41.05	2.0436
41.06	2.01564
41.07	2.01827
41.08	2.00314
41.09	2.04064
41.1	2.02057
41.11	2.00281
41.12	2.00643
41.13	2.03571
41.14	2.01465
41.15	2.0107
41.16	2.01564
41.17	2.03176
41.18	2.01367
41.19	1.99919
41.2	2.02649
41.21	2.03965
41.22	2.03538
41.23	2.01564
41.24	2.00445
41.25	2.00149
41.26	2.01498
41.27	2.0186
41.28	1.99656
41.29	2.01893
41.3	1.99228
41.31	2.01564
41.32	2.03242
41.33	2.0061
41.34	2.0186
41.35	2.03143
41.36	2.01399
41.37	2.01597
41.38	2.02156
41.39	2.01498
41.4	2.00873
41.41	2.00413
41.42	1.99228
41.43	2.00774
41.44	2.0061
41.45	1.99722
41.46	2.04097
41.47	2.0311
41.48	2.01531
41.49	2.00939
41.5	2.02189
41.51	2.00939
41.52	2.01794
41.53	1.99788
41.54	2.01564
41.55	2.02978
41.56	2.03176
41.57	2.03932
41.58	2.01597
41.59	2.0436
41.6	2.03176
41.61	2.00774
41.62	2.0186
41.63	2.0288
41.64	2.00939
41.65	1.99689
41.66	1.98176
41.67	1.99491
41.68	2.0288
41.69	2.00939
41.7	2.01761
41.71	1.99952
41.72	1.99886
41.73	2.00511
41.74	2.04623
41.75	2.02321
41.76	2.02814
41.77	1.9959
41.78	2.00709
41.79	2.00018
41.8	2.0061
41.81	2.03867
41.82	2.02123
41.83	2.01432
41.84	2.03636
41.85	2.01301
41.86	2.04623
41.87	2.04426
41.88	2.03242
41.89	2.01268
41.9	2.02584
41.91	2.00807
41.92	1.99755
41.93	1.97978
41.94	2.01301
41.95	2.03998
41.96	2.01926
41.97	2.0061
41.98	2.00709
41.99	2.02748
42	2.00939
42.01	2.01728
42.02	2.01893
42.03	2.02946
42.04	2.01794
42.05	2.03538
42.06	2.01235
42.07	2.03011
42.08	2.02748
42.09	1.98735
42.1	2.0084
42.11	2.02518
42.12	2.03834
42.13	2.02781
42.14	2.02913
42.15	2.01597
42.16	2.01301
42.17	2.02847
42.18	2.04722
42.19	2.00051
42.2	2.01136
42.21	2.01465
42.22	2.02518
42.23	2.02452
42.24	1.9959
42.25	2.03406
42.26	2.00643
42.27	1.98505
42.28	1.99294
42.29	2.02222
42.3	2.0436
42.31	2.01564
42.32	2.02485
42.33	2.01531
42.34	1.99557
42.35	2.00248
42.36	1.99952
42.37	2.03505
42.38	2.05248
42.39	2.01728
42.4	2.00248
42.41	2.03932
42.42	2.02452
42.43	2.03439
42.44	1.99524
42.45	2.01794
42.46	2.00577
42.47	2.00413
42.48	2.01005
42.49	1.99689
42.5	1.9982
42.51	2.01169
42.52	2.0061
42.53	2.03571
42.54	2.01301
42.55	2.01038
42.56	2.00544
42.57	2.01728
42.58	2.01827
42.59	2.01103
42.6	2.03274
42.61	1.99064
42.62	2.00478
42.63	2.01169
42.64	2.0288
42.65	2.01728
42.66	1.99163
42.67	2.01301
42.68	2.0186
42.69	2.0209
42.7	2.02386
42.71	2.02419
42.72	1.99919
42.73	2.01103
42.74	2.01005
42.75	2.00478
42.76	2.00182
42.77	1.98241
42.78	1.97518
42.79	2.02386
42.8	2.05511
42.81	2.02781
42.82	2.01794
42.83	2.00972
42.84	1.99886
42.85	2.03669
42.86	2.02781
42.87	2.01235
42.88	2.0459
42.89	2.05446
42.9	2.01761
42.91	2.01005
42.92	2.02156
42.93	2.01465
42.94	1.99064
42.95	1.99656
42.96	2.01103
42.97	2.01893
42.98	2.03209
42.99	2.0413
43	2.02649
43.01	2.01202
43.02	2.00676
43.03	2.02024
43.04	2.05051
43.05	2.04919
43.06	2.02156
43.07	2.02946
43.08	2.03603
43.09	2.00445
43.1	2.064
43.11	2.05742
43.12	2.02748
43.13	2.04327
43.14	2.04327
43.15	2.0311
43.16	2.01794
43.17	2.00742
43.18	2.04393
43.19	2.039
43.2	2.02814
43.21	2.0436
43.22	2.02419
43.23	2.00215
43.24	2.01235
43.25	2.01827
43.26	2.02288
43.27	2.0413
43.28	2.02485
43.29	2.01202
43.3	2.01268
43.31	2.02715
43.32	2.01465
43.33	2.03077
43.34	2.01498
43.35	1.9982
43.36	2.03472
43.37	2.03011
43.38	2.01136
43.39	2.00873
43.4	2.02485
43.41	1.98702
43.42	1.98669
43.43	1.99689
43.44	2.01597
43.45	2.02978
43.46	2.03373
43.47	2.01663
43.48	2.01992
43.49	2.05939
43.5	2.05479
43.51	2.03472
43.52	2.03669
43.53	2.02715
43.54	2.0334
43.55	2.04656
43.56	2.02386
43.57	2.02419
43.58	2.0163
43.59	2.01959
43.6	2.00972
43.61	2.01038
43.62	1.99788
43.63	2.01169
43.64	2.01038
43.65	1.98274
43.66	1.99261
43.67	2.02321
43.68	2.01038
43.69	2.03472
43.7	2.00084
43.71	2.02222
43.72	2.01663
43.73	2.04886
43.74	2.02156
43.75	2.01564
43.76	2.04426
43.77	2.01103
43.78	2.04426
43.79	2.03702
43.8	2.00215
43.81	2.02715
43.82	2.01038
43.83	2.02946
43.84	2.0061
43.85	2.00544
43.86	2.02485
43.87	2.01893
43.88	2.02715
43.89	2.02419
43.9	2.02518
43.91	2.0186
43.92	2.02584
43.93	2.0186
43.94	2.02156
43.95	2.01103
43.96	2.03077
43.97	2.05248
43.98	2.04064
43.99	2.04952
44	1.99755
44.01	2.01695
44.02	2.03077
44.03	1.99031
44.04	2.00577
44.05	2.02353
44.06	2.02518
44.07	2.03373
44.08	2.01794
44.09	1.99656
44.1	2.00018
44.11	2.02452
44.12	2.02715
44.13	2.02847
44.14	2.00084
44.15	2.00347
44.16	1.9936
44.17	2.00577
44.18	2.00742
44.19	2.02452
44.2	2.01597
44.21	2.01268
44.22	2.02748
44.23	2.00807
44.24	2.00742
44.25	2.02452
44.26	2.03505
44.27	2.03439
44.28	2.02057
44.29	2.0186
44.3	2.04919
44.31	2.0334
44.32	2.00051
44.33	2.01663
44.34	2.02551
44.35	2.01465
44.36	2.00445
44.37	2.04196
44.38	2.01136
44.39	2.039
44.4	2.04525
44.41	2.02485
44.42	2.02189
44.43	2.02649
44.44	1.99722
44.45	2.00248
44.46	2.0311
44.47	1.99689
44.48	1.9913
44.49	2.0515
44.5	2.04163
44.51	2.03307
44.52	2.01498
44.53	2.02321
44.54	2.03242
44.55	2.03735
44.56	2.04886
44.57	2.02222
44.58	2.0334
44.59	2.04064
44.6	2.01005
44.61	1.99886
44.62	2.03965
44.63	2.03176
44.64	2.00676
44.65	2.02353
44.66	2.0186
44.67	2.03274
44.68	2.04689
44.69	2.0186
44.7	2.00577
44.71	2.02617
44.72	2.02156
44.73	2.01399
44.74	1.99163
44.75	2.0061
44.76	2.02584
44.77	2.05182
44.78	2.03011
44.79	2.0311
44.8	2.0311
44.81	2.01334
44.82	2.02617
44.83	2.03735
44.84	2.0311
44.85	2.04228
44.86	2.02847
44.87	2.02814
44.88	2.00972
44.89	2.00445
44.9	2.00577
44.91	2.02321
44.92	2.04656
44.93	2.02288
44.94	2.01695
44.95	2.00248
44.96	2.01432
44.97	2.04656
44.98	2.03571
44.99	2.01202
45	2.00413
45.01	2.02748
45.02	2.0163
45.03	2.01597
45.04	2.03307
45.05	2.03176
45.06	2.02123
45.07	2.01235
45.08	2.02288
45.09	2.00873
45.1	1.99952
45.11	1.99426
45.12	2.02518
45.13	2.01432
45.14	2.02156
45.15	2.01597
45.16	2.00182
45.17	1.99853
45.18	2.01926
45.19	2.03801
45.2	2.02452
45.21	2.03176
45.22	2.00709
45.23	2.00643
45.24	2.00116
45.25	2.0107
45.26	2.03735
45.27	2.02748
45.28	2.01827
45.29	2.04064
45.3	2.03044
45.31	2.01761
45.32	2.04755
45.33	2.00774
45.34	1.99886
45.35	2.02518
45.36	1.99886
45.37	2.02518
45.38	1.99919
45.39	2.00643
45.4	2.02189
45.41	2.03274
45.42	2.01597
45.43	2.01169
45.44	2.03998
45.45	2.03472
45.46	2.01794
45.47	2.0107
45.48	2.01005
45.49	2.0186
45.5	2.0209
45.51	1.99195
45.52	1.98965
45.53	1.99952
45.54	2.04426
45.55	2.0084
45.56	2.02288
45.57	2.03702
45.58	2.02024
45.59	2.01597
45.6	2.01334
45.61	2.00742
45.62	2.00182
45.63	1.99327
45.64	2.03768
45.65	2.00972
45.66	1.98735
45.67	2.02255
45.68	2.02222
45.69	2.01564
45.7	2.00051
45.71	2.00511
45.72	2.00149
45.73	2.00577
45.74	2.03669
45.75	2.04853
45.76	2.02485
45.77	1.99623
45.78	2.03143
45.79	2.04656
45.8	1.98669
45.81	2.00544
45.82	2.01761
45.83	2.04853
45.84	2.02156
45.85	1.98669
45.86	2.04459
45.87	2.00709
45.88	1.96728
45.89	2.01005
45.9	2.0186
45.91	2.01827
45.92	2.02024
45.93	2.02024
45.94	2.02518
45.95	2.03867
45.96	2.02847
45.97	2.04064
45.98	2.03998
45.99	2.01399
46	2.03768
46.01	2.01794
46.02	2.00544
46.03	2.02024
46.04	2.02551
46.05	2.02781
46.06	2.02584
46.07	2.0311
46.08	2.00742
46.09	2.00742
46.1	2.00709
46.11	2.00347
46.12	2.01498
46.13	2.02386
46.14	2.03077
46.15	2.02189
46.16	2.03636
46.17	2.02452
46.18	2.00511
46.19	2.00577
46.2	2.01992
46.21	2.03735
46.22	2.00511
46.23	1.9959
46.24	2.00116
46.25	2.02551
46.26	2.00215
46.27	2.02156
46.28	2.01893
46.29	2.01761
46.3	2.02321
46.31	2.00643
46.32	2.02781
46.33	2.04196
46.34	2.04623
46.35	2.04459
46.36	2.01728
46.37	2.01268
46.38	2.00544
46.39	2.01334
46.4	2.03932
46.41	2.02649
46.42	2.01597
46.43	2.01992
46.44	2.02584
46.45	2.01827
46.46	2.03044
46.47	2.03143
46.48	2.02715
46.49	2.02057
46.5	2.01728
46.51	2.02189
46.52	2.02781
46.53	2.0515
46.54	2.01038
46.55	2.00807
46.56	2.03735
46.57	2.04393
46.58	2.03768
46.59	2.01432
46.6	2.02288
46.61	2.02189
46.62	2.06432
46.63	2.03472
46.64	2.02584
46.65	2.03011
46.66	2.03373
46.67	2.01992
46.68	2.0107
46.69	2.03669
46.7	2.01103
46.71	2.03538
46.72	2.03571
46.73	2.01761
46.74	2.01169
46.75	2.02419
46.76	2.02255
46.77	2.02485
46.78	2.00774
46.79	1.99755
46.8	2.03274
46.81	2.03932
46.82	2.02485
46.83	2.02189
46.84	2.01992
46.85	2.03538
46.86	2.04557
46.87	2.02123
46.88	2.00051
46.89	1.99064
46.9	2.01136
46.91	2.02715
46.92	2.03209
46.93	2.03505
46.94	1.99952
46.95	2.02419
46.96	2.04985
46.97	2.03373
46.98	2.00018
46.99	1.99195
47	2.01959
47.01	2.00116
47.02	2.02321
47.03	2.02057
47.04	1.99952
47.05	2.00906
47.06	2.00215
47.07	2.02321
47.08	2.02584
47.09	2.01761
47.1	2.01169
47.11	2.04623
47.12	2.02419
47.13	2.01399
47.14	2.00676
47.15	2.01005
47.16	2.01597
47.17	2.00577
47.18	1.99097
47.19	2.02847
47.2	2.04525
47.21	2.01432
47.22	2.00084
47.23	2.03965
47.24	2.02452
47.25	2.02781
47.26	2.01794
47.27	2.05248
47.28	2.01959
47.29	2.02617
47.3	2.0334
47.31	2.02649
47.32	2.04031
47.33	2.02222
47.34	2.02419
47.35	2.00774
47.36	1.99689
47.37	2.01827
47.38	2.03735
47.39	2.0288
47.4	2.02814
47.41	2.00676
47.42	2.00873
47.43	2.0209
47.44	2.00314
47.45	1.99524
47.46	2.01399
47.47	2.0084
47.48	1.9936
47.49	2.01893
47.5	2.04722
47.51	2.04163
47.52	2.03406
47.53	2.02353
47.54	2.01465
47.55	2.00807
47.56	2.0107
47.57	2.02024
47.58	2.0209
47.59	2.01597
47.6	2.0186
47.61	2.01663
47.62	2.02978
47.63	2.04821
47.64	2.02715
47.65	2.02288
47.66	2.0107
47.67	2.02649
47.68	2.05314
47.69	2.0107
47.7	2.00248
47.71	2.02814
47.72	2.02353
47.73	2.02123
47.74	2.02386
47.75	2.00347
47.76	2.01399
47.77	2.00709
47.78	2.01564
47.79	2.05051
47.8	2.02452
47.81	2.01893
47.82	2.01695
47.83	2.0163
47.84	1.99788
47.85	2.03669
47.86	2.05873
47.87	2.03406
47.88	2.02814
47.89	2.01992
47.9	1.99557
47.91	2.02617
47.92	2.03406
47.93	2.01992
47.94	2.0311
47.95	2.02452
47.96	2.0209
47.97	2.03834
47.98	2.04788
47.99	2.0436
48	2.01235
48.01	2.04294
48.02	1.99919
48.03	2.0288
48.04	2.0186
48.05	2.03406
48.06	2.02353
48.07	2.01695
48.08	2.01301
48.09	2.02321
48.1	2.02057
48.11	2.00018
48.12	2.02123
48.13	2.0186
48.14	2.00413
48.15	2.02452
48.16	2.00709
48.17	2.01794
48.18	2.02978
48.19	2.01564
48.2	2.0186
48.21	2.00643
48.22	1.9982
48.23	2.01399
48.24	2.00544
48.25	2.00084
48.26	2.02781
48.27	2.02255
48.28	2.02946
48.29	1.99853
48.3	2.03571
48.31	2.03965
48.32	2.02255
48.33	2.01827
48.34	2.02946
48.35	2.01432
48.36	2.00116
48.37	2.03669
48.38	2.0311
48.39	2.01695
48.4	2.0061
48.41	2.02814
48.42	2.02123
48.43	2.02123
48.44	2.01465
48.45	2.02419
48.46	1.99656
48.47	2.00051
48.48	2.02288
48.49	2.03143
48.5	2.01465
48.51	2.02781
48.52	2.05577
48.53	1.99952
48.54	1.98143
48.55	2.0038
48.56	2.03768
48.57	2.01827
48.58	1.99327
48.59	1.99919
48.6	1.99393
48.61	2.0084
48.62	2.05807
48.63	2.03209
48.64	2.00709
48.65	2.01926
48.66	2.01926
48.67	2.01136
48.68	2.00314
48.69	2.02584
48.7	2.02913
48.71	2.01663
48.72	2.02847
48.73	2.03834
48.74	2.00577
48.75	2.02518
48.76	2.01367
48.77	2.03176
48.78	2.05182
48.79	2.03735
48.8	2.04557
48.81	2.01597
48.82	2.01038
48.83	2.0084
48.84	2.03735
48.85	2.01827
48.86	2.03834
48.87	2.03274
48.88	2.04196
48.89	2.01761
48.9	2.01992
48.91	2.03143
48.92	2.04196
48.93	2.03735
48.94	2.02419
48.95	2.03965
48.96	2.00478
48.97	2.03801
48.98	2.07025
48.99	2.03406
49	2.00939
49.01	2.00051
49.02	2.01399
49.03	2.00709
49.04	2.02255
49.05	2.03472
49.06	2.02057
49.07	2.00215
49.08	1.98998
49.09	2.03932
49.1	2.04755
49.11	2.02946
49.12	2.02584
49.13	2.03801
49.14	2.03571
49.15	2.00281
49.16	1.99919
49.17	2.0209
49.18	1.98636
49.19	2.02353
49.2	2.00215
49.21	2.00347
49.22	2.02123
49.23	2.03834
49.24	2.01728
49.25	2.01465
49.26	2.02485
49.27	2.03768
49.28	2.02649
49.29	2.03505
49.3	2.01432
49.31	2.03011
49.32	2.0084
49.33	2.01926
49.34	2.0209
49.35	2.01399
49.36	2.03669
49.37	2.00807
49.38	2.00774
49.39	1.9936
49.4	2.01038
49.41	1.98603
49.42	2.0084
49.43	2.03932
49.44	2.03505
49.45	2.01794
49.46	2.0209
49.47	2.01202
49.48	2.02024
49.49	2.01038
49.5	1.98176
49.51	2.00478
49.52	2.00676
49.53	2.02321
49.54	2.00577
49.55	2.0186
49.56	2.03011
49.57	2.03472
49.58	2.01268
49.59	2.01893
49.6	1.98866
49.61	1.9936
49.62	2.01367
49.63	2.03011
49.64	2.04426
49.65	2.02057
49.66	1.99064
49.67	2.0163
49.68	2.03439
49.69	2.02353
49.7	2.00676
49.71	2.02321
49.72	2.03011
49.73	1.99788
49.74	1.98801
49.75	2.00643
49.76	2.02617
49.77	2.03439
49.78	2.0107
49.79	2.01301
49.8	2.02255
49.81	2.02847
49.82	2.03209
49.83	2.04821
49.84	2.02518
49.85	2.01926
49.86	2.00742
49.87	2.01465
49.88	2.00774
49.89	2.01136
49.9	2.02518
49.91	2.04327
49.92	2.00248
49.93	2.02715
49.94	2.01531
49.95	1.9982
49.96	2.01597
49.97	2.02288
49.98	2.05577
49.99	2.05018
50	2.02321
