"BIO-KINE ASCII FILE"
"_COMMENT"	"MOS-500 Spectrometer"
"_COMMENT"	"Kinetics measurement"
"_COMMENT"	"Y Unit : Volt,  X Unit : s"
"_COMMENT"	"Excitation wavelength : 380 nm"
"_COMMENT"	"Fentes bandwidth =  1 nm"
"_COMMENT"	"HV= 625V"
"_COMMENT"	"Timebase  1 =  .01 s   3001 pts"
"_SFM"	"SFM-400 /S  Advanced mode"
"_SFM"	"Ratio : S1: 2.5, S2: 0, S3: 0, S4: 1"
"_SFM"	"Content : S1: , S2: , S3: , S4:"
"_SFM"	"Concentration : S1: , S2: , S3: , S4:"
"_SFM"	"Total volume : 209 µl  Flow : 3.5 mL/s"
"_SFM"	"Acquisition start :  10 ms before stop"
"_SFM"	"cuve=FC-15, s1=10 ml , s2=10 ml , s3=10 ml , s4=1.9 ml"
"_UNITX"	"s"
"_UNITY"	"Volt"
"_DELTAX"	0
"_DATA"
1e-300	6.24965
0.01	6.65756
0.02	6.82072
0.03	6.84605
0.04	6.84901
0.05	6.86217
0.06	6.8773
0.07	6.87796
0.08	6.8852
0.09	6.88849
0.1	6.89408
0.11	6.89737
0.12	6.89408
0.13	6.88947
0.14	6.8898
0.15	6.89178
0.16	6.89474
0.17	6.89046
0.18	6.88947
0.19	6.88355
0.2	6.88388
0.21	6.87467
0.22	6.87303
0.23	6.88421
0.24	6.87237
0.25	6.87533
0.26	6.87632
0.27	6.86645
0.28	6.86283
0.29	6.85395
0.3	6.85888
0.31	6.85592
0.32	6.84539
0.33	6.84013
0.34	6.83947
0.35	6.83553
0.36	6.82796
0.37	6.83092
0.38	6.81612
0.39	6.8296
0.4	6.8148
0.41	6.81677
0.42	6.80263
0.43	6.8046
0.44	6.79079
0.45	6.7875
0.46	6.78618
0.47	6.78881
0.48	6.78289
0.49	6.77302
0.5	6.76315
0.51	6.76184
0.52	6.7648
0.53	6.76184
0.54	6.75131
0.55	6.74835
0.56	6.73914
0.57	6.74342
0.58	6.73388
0.59	6.73388
0.6	6.72039
0.61	6.71644
0.62	6.71184
0.63	6.71184
0.64	6.70625
0.65	6.69638
0.66	6.69473
0.67	6.69013
0.68	6.67532
0.69	6.67236
0.7	6.66217
0.71	6.65888
0.72	6.66447
0.73	6.65855
0.74	6.6546
0.75	6.64309
0.76	6.6444
0.77	6.63618
0.78	6.62236
0.79	6.63059
0.8	6.62236
0.81	6.60986
0.82	6.61315
0.83	6.60986
0.84	6.60657
0.85	6.59308
0.86	6.59243
0.87	6.58716
0.88	6.58058
0.89	6.5717
0.9	6.56447
0.91	6.55887
0.92	6.5615
0.93	6.55493
0.94	6.54111
0.95	6.54243
0.96	6.53946
0.97	6.53321
0.98	6.52367
0.99	6.52039
1	6.5115
1.01	6.51117
1.02	6.50098
1.03	6.50328
1.04	6.50229
1.05	6.48979
1.06	6.48486
1.07	6.48848
1.08	6.47795
1.09	6.46709
1.1	6.46578
1.11	6.45821
1.12	6.44933
1.13	6.44538
1.14	6.44571
1.15	6.43387
1.16	6.42663
1.17	6.43222
1.18	6.42268
1.19	6.41249
1.2	6.4115
1.21	6.40953
1.22	6.40097
1.23	6.40492
1.24	6.399
1.25	6.38617
1.26	6.38749
1.27	6.39407
1.28	6.37959
1.29	6.36907
1.3	6.36183
1.31	6.35558
1.32	6.35426
1.33	6.34242
1.34	6.34374
1.35	6.3388
1.36	6.33091
1.37	6.33222
1.38	6.31873
1.39	6.31281
1.4	6.30656
1.41	6.30919
1.42	6.29801
1.43	6.29637
1.44	6.29209
1.45	6.28617
1.46	6.28189
1.47	6.27992
1.48	6.26676
1.49	6.2615
1.5	6.26413
1.51	6.24406
1.52	6.24932
1.53	6.24932
1.54	6.2411
1.55	6.23814
1.56	6.24209
1.57	6.22136
1.58	6.2138
1.59	6.2138
1.6	6.2036
1.61	6.20097
1.62	6.19472
1.63	6.19538
1.64	6.1957
1.65	6.18518
1.66	6.17893
1.67	6.1763
1.68	6.16939
1.69	6.16281
1.7	6.15327
1.71	6.14702
1.72	6.1411
1.73	6.14406
1.74	6.1332
1.75	6.12465
1.76	6.1207
1.77	6.13222
1.78	6.11741
1.79	6.11248
1.8	6.09866
1.81	6.10064
1.82	6.09143
1.83	6.08945
1.84	6.08912
1.85	6.08287
1.86	6.07103
1.87	6.07202
1.88	6.05689
1.89	6.04406
1.9	6.0434
1.91	6.04406
1.92	6.04044
1.93	6.03945
1.94	6.03452
1.95	6.02136
1.96	6.01642
1.97	6.01281
1.98	5.99932
1.99	5.99504
2	5.99373
2.01	5.98945
2.02	5.98123
2.03	5.97596
2.04	5.97333
2.05	5.97103
2.06	5.95886
2.07	5.95195
2.08	5.95063
2.09	5.94734
2.1	5.94109
2.11	5.93254
2.12	5.94043
2.13	5.93155
2.14	5.91905
2.15	5.91379
2.16	5.91149
2.17	5.91839
2.18	5.90853
2.19	5.91247
2.2	5.90885
2.21	5.89438
2.22	5.88583
2.23	5.88714
2.24	5.88221
2.25	5.86806
2.26	5.86083
2.27	5.85852
2.28	5.85227
2.29	5.85556
2.3	5.84734
2.31	5.83944
2.32	5.83089
2.33	5.82859
2.34	5.81708
2.35	5.82135
2.36	5.80984
2.37	5.80326
2.38	5.8003
2.39	5.79273
2.4	5.8003
2.41	5.78286
2.42	5.7855
2.43	5.78517
2.44	5.77464
2.45	5.76313
2.46	5.75326
2.47	5.7526
2.48	5.74602
2.49	5.74536
2.5	5.73089
2.51	5.73615
2.52	5.73451
2.53	5.72201
2.54	5.71115
2.55	5.71049
2.56	5.69997
2.57	5.69766
2.58	5.68582
2.59	5.68648
2.6	5.68385
2.61	5.68516
2.62	5.67464
2.63	5.66773
2.64	5.66049
2.65	5.65983
2.66	5.64898
2.67	5.65095
2.68	5.64273
2.69	5.62858
2.7	5.62529
2.71	5.61937
2.72	5.61608
2.73	5.60654
2.74	5.61345
2.75	5.60523
2.76	5.58713
2.77	5.58648
2.78	5.58944
2.79	5.57661
2.8	5.57463
2.81	5.56608
2.82	5.56871
2.83	5.55917
2.84	5.55194
2.85	5.54634
2.86	5.54667
2.87	5.54536
2.88	5.54371
2.89	5.53253
2.9	5.52529
2.91	5.52397
2.92	5.51707
2.93	5.50358
2.94	5.50424
2.95	5.50884
2.96	5.5049
2.97	5.49141
2.98	5.49108
2.99	5.4868
3	5.47529
3.01	5.46871
3.02	5.47003
3.03	5.45457
3.04	5.46443
3.05	5.44864
3.06	5.44206
3.07	5.43845
3.08	5.44108
3.09	5.43549
3.1	5.43384
3.11	5.42726
3.12	5.42364
3.13	5.42167
3.14	5.42233
3.15	5.41279
3.16	5.39733
3.17	5.39042
3.18	5.39897
3.19	5.3891
3.2	5.38976
3.21	5.38844
3.22	5.38187
3.23	5.37759
3.24	5.36838
3.25	5.36377
3.26	5.35983
3.27	5.36246
3.28	5.35752
3.29	5.35456
3.3	5.35325
3.31	5.35061
3.32	5.34338
3.33	5.33318
3.34	5.32792
3.35	5.31838
3.36	5.31838
3.37	5.31443
3.38	5.30818
3.39	5.30785
3.4	5.2993
3.41	5.29634
3.42	5.2914
3.43	5.29239
3.44	5.28417
3.45	5.27792
3.46	5.27199
3.47	5.2618
3.48	5.26147
3.49	5.26081
3.5	5.24995
3.51	5.24798
3.52	5.24568
3.53	5.24272
3.54	5.22726
3.55	5.2266
3.56	5.21706
3.57	5.21607
3.58	5.20719
3.59	5.20818
3.6	5.20061
3.61	5.19929
3.62	5.19272
3.63	5.18745
3.64	5.1789
3.65	5.18021
3.66	5.17923
3.67	5.1687
3.68	5.16377
3.69	5.16377
3.7	5.15258
3.71	5.14765
3.72	5.1539
3.73	5.14403
3.74	5.13449
3.75	5.13219
3.76	5.11705
3.77	5.13219
3.78	5.12429
3.79	5.10752
3.8	5.10883
3.81	5.11179
3.82	5.10225
3.83	5.0914
3.84	5.0914
3.85	5.09304
3.86	5.08383
3.87	5.08449
3.88	5.07297
3.89	5.06837
3.9	5.06311
3.91	5.06047
3.92	5.05883
3.93	5.05225
3.94	5.04567
3.95	5.04534
3.96	5.04205
3.97	5.04337
3.98	5.03942
3.99	5.02396
4	5.02199
4.01	5.021
4.02	5.01343
4.03	5.00422
4.04	5.00554
4.05	5.00949
4.06	5.00718
4.07	4.99666
4.08	4.98843
4.09	4.99238
4.1	4.99337
4.11	4.9858
4.12	4.97626
4.13	4.96968
4.14	4.96771
4.15	4.96442
4.16	4.96343
4.17	4.95356
4.18	4.94633
4.19	4.94435
4.2	4.94468
4.21	4.94106
4.22	4.94106
4.23	4.93448
4.24	4.92659
4.25	4.91935
4.26	4.9233
4.27	4.91277
4.28	4.91014
4.29	4.90389
4.3	4.9085
4.31	4.90192
4.32	4.89632
4.33	4.90093
4.34	4.8858
4.35	4.88744
4.36	4.88514
4.37	4.88284
4.38	4.87593
4.39	4.87132
4.4	4.87231
4.41	4.86803
4.42	4.87297
4.43	4.86639
4.44	4.85718
4.45	4.8529
4.46	4.85027
4.47	4.84764
4.48	4.84895
4.49	4.8427
4.5	4.84106
4.51	4.83481
4.52	4.82823
4.53	4.82132
4.54	4.82724
4.55	4.82297
4.56	4.8108
4.57	4.80816
4.58	4.80849
4.59	4.79895
4.6	4.7927
4.61	4.7881
4.62	4.78908
4.63	4.78678
4.64	4.78119
4.65	4.77362
4.66	4.78218
4.67	4.77691
4.68	4.76869
4.69	4.76277
4.7	4.76408
4.71	4.76704
4.72	4.76047
4.73	4.74533
4.74	4.7529
4.75	4.74369
4.76	4.74698
4.77	4.74369
4.78	4.73514
4.79	4.72691
4.8	4.72889
4.81	4.73185
4.82	4.72757
4.83	4.72231
4.84	4.72231
4.85	4.72165
4.86	4.70981
4.87	4.70882
4.88	4.70257
4.89	4.70388
4.9	4.7029
4.91	4.70092
4.92	4.68711
4.93	4.68875
4.94	4.68448
4.95	4.68316
4.96	4.67428
4.97	4.67198
4.98	4.6654
4.99	4.6598
5	4.66145
5.01	4.66244
5.02	4.65783
5.03	4.65651
5.04	4.65026
5.05	4.64697
5.06	4.64632
5.07	4.64171
5.08	4.63908
5.09	4.63678
5.1	4.62888
5.11	4.62428
5.12	4.62132
5.13	4.62526
5.14	4.61836
5.15	4.61441
5.16	4.60289
5.17	4.59928
5.18	4.59928
5.19	4.595
5.2	4.59105
5.21	4.58579
5.22	4.5871
5.23	4.58842
5.24	4.58053
5.25	4.57822
5.26	4.58184
5.27	4.57756
5.28	4.57921
5.29	4.57526
5.3	4.56605
5.31	4.56506
5.32	4.56145
5.33	4.5621
5.34	4.55618
5.35	4.55421
5.36	4.55223
5.37	4.54895
5.38	4.54763
5.39	4.53908
5.4	4.53184
5.41	4.53381
5.42	4.53546
5.43	4.53019
5.44	4.52526
5.45	4.52658
5.46	4.51769
5.47	4.51934
5.48	4.51868
5.49	4.51309
5.5	4.51013
5.51	4.50289
5.52	4.50519
5.53	4.49861
5.54	4.49664
5.55	4.4973
5.56	4.49105
5.57	4.4894
5.58	4.48973
5.59	4.48809
5.6	4.48217
5.61	4.48019
5.62	4.47986
5.63	4.4723
5.64	4.47329
5.65	4.46671
5.66	4.46144
5.67	4.46276
5.68	4.46342
5.69	4.45256
5.7	4.46342
5.71	4.4575
5.72	4.44828
5.73	4.4473
5.74	4.44269
5.75	4.4496
5.76	4.45059
5.77	4.44927
5.78	4.44302
5.79	4.43973
5.8	4.43973
5.81	4.42624
5.82	4.4292
5.83	4.43085
5.84	4.4223
5.85	4.43085
5.86	4.42592
5.87	4.42164
5.88	4.41572
5.89	4.42032
5.9	4.41703
5.91	4.41407
5.92	4.40552
5.93	4.3996
5.94	4.39861
5.95	4.39236
5.96	4.38841
5.97	4.39598
5.98	4.39072
5.99	4.38545
6	4.38348
6.01	4.37822
6.02	4.37657
6.03	4.37328
6.04	4.37493
6.05	4.3667
6.06	4.3621
6.07	4.36177
6.08	4.35979
6.09	4.35716
6.1	4.34499
6.11	4.34466
6.12	4.34861
6.13	4.34072
6.14	4.34729
6.15	4.33216
6.16	4.32624
6.17	4.33414
6.18	4.32624
6.19	4.33019
6.2	4.32624
6.21	4.32887
6.22	4.32394
6.23	4.31835
6.24	4.31341
6.25	4.31637
6.26	4.31703
6.27	4.31045
6.28	4.30979
6.29	4.29927
6.3	4.30354
6.31	4.30519
6.32	4.29335
6.33	4.29532
6.34	4.28841
6.35	4.29433
6.36	4.28315
6.37	4.28907
6.38	4.27854
6.39	4.28742
6.4	4.28742
6.41	4.28413
6.42	4.28249
6.43	4.28117
6.44	4.27756
6.45	4.26999
6.46	4.27196
6.47	4.26999
6.48	4.26703
6.49	4.27328
6.5	4.26341
6.51	4.26144
6.52	4.26012
6.53	4.26275
6.54	4.26209
6.55	4.25091
6.56	4.25058
6.57	4.2565
6.58	4.24861
6.59	4.24762
6.6	4.244
6.61	4.23973
6.62	4.23282
6.63	4.23479
6.64	4.23315
6.65	4.23709
6.66	4.2292
6.67	4.23611
6.68	4.22755
6.69	4.22821
6.7	4.2338
6.71	4.21867
6.72	4.21768
6.73	4.21111
6.74	4.21505
6.75	4.21637
6.76	4.21341
6.77	4.21209
6.78	4.20124
6.79	4.2065
6.8	4.20255
6.81	4.20321
6.82	4.20255
6.83	4.19795
6.84	4.19729
6.85	4.19696
6.86	4.19499
6.87	4.19301
6.88	4.19268
6.89	4.1815
6.9	4.18216
6.91	4.18249
6.92	4.19005
6.93	4.18578
6.94	4.17689
6.95	4.17097
6.96	4.16571
6.97	4.16735
6.98	4.16571
6.99	4.1736
7	4.169
7.01	4.169
7.02	4.15946
7.03	4.16012
7.04	4.16275
7.05	4.16143
7.06	4.1588
7.07	4.15288
7.08	4.15518
7.09	4.15156
7.1	4.14531
7.11	4.144
7.12	4.14696
7.13	4.15617
7.14	4.15058
7.15	4.14499
7.16	4.14367
7.17	4.144
7.18	4.13643
7.19	4.13248
7.2	4.13314
7.21	4.13676
7.22	4.14137
7.23	4.13643
7.24	4.13216
7.25	4.13183
7.26	4.12163
7.27	4.12722
7.28	4.11735
7.29	4.11702
7.3	4.12262
7.31	4.1213
7.32	4.119
7.33	4.11571
7.34	4.11077
7.35	4.10716
7.36	4.11012
7.37	4.10518
7.38	4.10189
7.39	4.09959
7.4	4.09696
7.41	4.10354
7.42	4.09531
7.43	4.1009
7.44	4.094
7.45	4.08709
7.46	4.09071
7.47	4.08939
7.48	4.08676
7.49	4.08676
7.5	4.08775
7.51	4.08577
7.52	4.08544
7.53	4.08117
7.54	4.07097
7.55	4.07229
7.56	4.07722
7.57	4.07919
7.58	4.07492
7.59	4.07196
7.6	4.07031
7.61	4.06834
7.62	4.06275
7.63	4.06636
7.64	4.06505
7.65	4.06044
7.66	4.05748
7.67	4.05617
7.68	4.05682
7.69	4.05288
7.7	4.05189
7.71	4.05321
7.72	4.05189
7.73	4.05057
7.74	4.0486
7.75	4.0486
7.76	4.044
7.77	4.03906
7.78	4.04597
7.79	4.03709
7.8	4.044
7.81	4.03544
7.82	4.03215
7.83	4.04498
7.84	4.04169
7.85	4.04334
7.86	4.03182
7.87	4.03018
7.88	4.02919
7.89	4.03117
7.9	4.03117
7.91	4.02524
7.92	4.02656
7.93	4.03018
7.94	4.02393
7.95	4.02722
7.96	4.02327
7.97	4.0213
7.98	4.01834
7.99	4.0213
8	4.01768
8.01	4.02327
8.02	4.02426
8.03	4.01965
8.04	4.01209
8.05	4.0213
8.06	4.01044
8.07	4.0157
8.08	4.01274
8.09	4.00255
8.1	4.01077
8.11	4.0111
8.12	4.01274
8.13	4.00386
8.14	4.00057
8.15	4.00584
8.16	4.00715
8.17	4.00616
8.18	4.00222
8.19	4.00551
8.2	3.99926
8.21	4.00156
8.22	3.99695
8.23	3.99136
8.24	3.99564
8.25	3.99399
8.26	4.00386
8.27	3.99991
8.28	3.99893
8.29	3.99597
8.3	3.98807
8.31	3.98741
8.32	3.98939
8.33	3.9986
8.34	3.98774
8.35	3.98544
8.36	3.98643
8.37	3.9838
8.38	3.98709
8.39	3.98149
8.4	3.98084
8.41	3.98182
8.42	3.98116
8.43	3.9713
8.44	3.97097
8.45	3.96998
8.46	3.96998
8.47	3.96801
8.48	3.96899
8.49	3.96603
8.5	3.96307
8.51	3.96143
8.52	3.95748
8.53	3.96077
8.54	3.9588
8.55	3.95616
8.56	3.95222
8.57	3.95748
8.58	3.95715
8.59	3.94991
8.6	3.95814
8.61	3.95254
8.62	3.95518
8.63	3.95847
8.64	3.95057
8.65	3.95386
8.66	3.9532
8.67	3.95057
8.68	3.94958
8.69	3.95189
8.7	3.94794
8.71	3.9407
8.72	3.94695
8.73	3.9486
8.74	3.94662
8.75	3.95123
8.76	3.94333
8.77	3.95222
8.78	3.94498
8.79	3.9407
8.8	3.93972
8.81	3.93906
8.82	3.93939
8.83	3.94037
8.84	3.93379
8.85	3.93018
8.86	3.9282
8.87	3.92919
8.88	3.92952
8.89	3.93774
8.9	3.93116
8.91	3.9305
8.92	3.93708
8.93	3.93544
8.94	3.92557
8.95	3.92261
8.96	3.91669
8.97	3.91077
8.98	3.91965
8.99	3.91932
9	3.91965
9.01	3.91998
9.02	3.92261
9.03	3.91702
9.04	3.91143
9.05	3.91077
9.06	3.91274
9.07	3.91307
9.08	3.91406
9.09	3.90682
9.1	3.90452
9.11	3.90485
9.12	3.90781
9.13	3.90221
9.14	3.90452
9.15	3.90419
9.16	3.89925
9.17	3.89827
9.18	3.89728
9.19	3.90221
9.2	3.89564
9.21	3.89465
9.22	3.89925
9.23	3.89892
9.24	3.90156
9.25	3.89531
9.26	3.89629
9.27	3.89564
9.28	3.89267
9.29	3.88642
9.3	3.88544
9.31	3.88971
9.32	3.88807
9.33	3.89037
9.34	3.88215
9.35	3.88083
9.36	3.88116
9.37	3.88116
9.38	3.88708
9.39	3.87919
9.4	3.87359
9.41	3.88083
9.42	3.88675
9.43	3.88248
9.44	3.88182
9.45	3.87754
9.46	3.87656
9.47	3.87656
9.48	3.87557
9.49	3.87985
9.5	3.8805
9.51	3.87557
9.52	3.86965
9.53	3.87656
9.54	3.87688
9.55	3.87656
9.56	3.87458
9.57	3.87886
9.58	3.87853
9.59	3.87491
9.6	3.87425
9.61	3.86932
9.62	3.87096
9.63	3.87294
9.64	3.87129
9.65	3.87129
9.66	3.8634
9.67	3.87096
9.68	3.86932
9.69	3.87129
9.7	3.86636
9.71	3.86767
9.72	3.8634
9.73	3.87063
9.74	3.87754
9.75	3.87458
9.76	3.87129
9.77	3.86702
9.78	3.86109
9.79	3.86307
9.8	3.86998
9.81	3.86833
9.82	3.86077
9.83	3.86241
9.84	3.85616
9.85	3.86109
9.86	3.85682
9.87	3.85123
9.88	3.85912
9.89	3.85419
9.9	3.85748
9.91	3.85978
9.92	3.85353
9.93	3.85517
9.94	3.85649
9.95	3.85517
9.96	3.84859
9.97	3.84991
9.98	3.85452
9.99	3.8453
10	3.84629
10.01	3.84827
10.02	3.85353
10.03	3.84465
10.04	3.84465
10.05	3.8384
10.06	3.85287
10.07	3.84596
10.08	3.8453
10.09	3.8384
10.1	3.8453
10.11	3.83971
10.12	3.84037
10.13	3.84037
10.14	3.84169
10.15	3.83971
10.16	3.83445
10.17	3.84004
10.18	3.83675
10.19	3.83741
10.2	3.84333
10.21	3.83873
10.22	3.82984
10.23	3.82491
10.24	3.83083
10.25	3.83741
10.26	3.82951
10.27	3.82425
10.28	3.82919
10.29	3.82326
10.3	3.82853
10.31	3.82655
10.32	3.81833
10.33	3.82228
10.34	3.83149
10.35	3.82721
10.36	3.82392
10.37	3.83116
10.38	3.82294
10.39	3.82655
10.4	3.82063
10.41	3.81636
10.42	3.81701
10.43	3.81701
10.44	3.82228
10.45	3.82491
10.46	3.82458
10.47	3.81603
10.48	3.82326
10.49	3.82458
10.5	3.82491
10.51	3.82688
10.52	3.83215
10.53	3.82458
10.54	3.8259
10.55	3.82129
10.56	3.82326
10.57	3.8203
10.58	3.81997
10.59	3.81866
10.6	3.8259
10.61	3.82655
10.62	3.82162
10.63	3.82326
10.64	3.81767
10.65	3.81471
10.66	3.81109
10.67	3.8157
10.68	3.8157
10.69	3.81109
10.7	3.81833
10.71	3.81241
10.72	3.81142
10.73	3.81044
10.74	3.80649
10.75	3.8134
10.76	3.8157
10.77	3.81307
10.78	3.81866
10.79	3.81669
10.8	3.80484
10.81	3.81175
10.82	3.81109
10.83	3.81274
10.84	3.80649
10.85	3.8032
10.86	3.80287
10.87	3.80122
10.88	3.80221
10.89	3.79793
10.9	3.80221
10.91	3.81208
10.92	3.80057
10.93	3.79859
10.94	3.8078
10.95	3.80747
10.96	3.8009
10.97	3.80024
10.98	3.79892
10.99	3.80024
11	3.79991
11.01	3.80353
11.02	3.80057
11.03	3.80057
11.04	3.80188
11.05	3.7953
11.06	3.80484
11.07	3.80057
11.08	3.80254
11.09	3.80221
11.1	3.80155
11.11	3.79892
11.12	3.79892
11.13	3.8009
11.14	3.79629
11.15	3.79432
11.16	3.79662
11.17	3.80057
11.18	3.7953
11.19	3.79793
11.2	3.79267
11.21	3.79267
11.22	3.79629
11.23	3.79399
11.24	3.79004
11.25	3.79859
11.26	3.7953
11.27	3.79695
11.28	3.79366
11.29	3.78741
11.3	3.78971
11.31	3.79399
11.32	3.79399
11.33	3.78872
11.34	3.78741
11.35	3.78774
11.36	3.78708
11.37	3.78346
11.38	3.79037
11.39	3.78543
11.4	3.78511
11.41	3.79168
11.42	3.7828
11.43	3.7782
11.44	3.77886
11.45	3.78609
11.46	3.78478
11.47	3.7782
11.48	3.77688
11.49	3.77063
11.5	3.78247
11.51	3.78346
11.52	3.77721
11.53	3.77984
11.54	3.77589
11.55	3.77491
11.56	3.77787
11.57	3.77491
11.58	3.77359
11.59	3.77359
11.6	3.7703
11.61	3.77129
11.62	3.77063
11.63	3.77293
11.64	3.77359
11.65	3.77787
11.66	3.78511
11.67	3.77491
11.68	3.76734
11.69	3.76899
11.7	3.77425
11.71	3.7726
11.72	3.76767
11.73	3.77162
11.74	3.76504
11.75	3.7601
11.76	3.76997
11.77	3.77293
11.78	3.77425
11.79	3.76504
11.8	3.76734
11.81	3.76866
11.82	3.76471
11.83	3.76274
11.84	3.76734
11.85	3.75912
11.86	3.75912
11.87	3.76603
11.88	3.76438
11.89	3.75846
11.9	3.76372
11.91	3.76142
11.92	3.76504
11.93	3.76405
11.94	3.77096
11.95	3.7726
11.96	3.75945
11.97	3.76603
11.98	3.76899
11.99	3.76241
12	3.76076
12.01	3.76142
12.02	3.75978
12.03	3.76307
12.04	3.76438
12.05	3.76339
12.06	3.76076
12.07	3.76701
12.08	3.75978
12.09	3.76405
12.1	3.75517
12.11	3.7532
12.12	3.76274
12.13	3.76043
12.14	3.75254
12.15	3.75221
12.16	3.75418
12.17	3.7601
12.18	3.76175
12.19	3.75484
12.2	3.75879
12.21	3.75714
12.22	3.7601
12.23	3.75418
12.24	3.75747
12.25	3.75517
12.26	3.75353
12.27	3.75978
12.28	3.75353
12.29	3.75714
12.3	3.75879
12.31	3.76241
12.32	3.75978
12.33	3.75517
12.34	3.76109
12.35	3.76241
12.36	3.75879
12.37	3.75879
12.38	3.76208
12.39	3.75879
12.4	3.75517
12.41	3.76307
12.42	3.75912
12.43	3.76109
12.44	3.76274
12.45	3.75813
12.46	3.75681
12.47	3.7532
12.48	3.76043
12.49	3.76043
12.5	3.75714
12.51	3.75517
12.52	3.75287
12.53	3.75616
12.54	3.75978
12.55	3.75287
12.56	3.76175
12.57	3.75879
12.58	3.75616
12.59	3.75353
12.6	3.7555
12.61	3.75287
12.62	3.75583
12.63	3.75517
12.64	3.75056
12.65	3.74958
12.66	3.74695
12.67	3.75089
12.68	3.75714
12.69	3.74728
12.7	3.74859
12.71	3.75056
12.72	3.75089
12.73	3.75089
12.74	3.74662
12.75	3.73971
12.76	3.73839
12.77	3.74431
12.78	3.7407
12.79	3.74399
12.8	3.74135
12.81	3.73708
12.82	3.74135
12.83	3.73708
12.84	3.74333
12.85	3.74201
12.86	3.7407
12.87	3.73774
12.88	3.73576
12.89	3.73774
12.9	3.74168
12.91	3.73905
12.92	3.74004
12.93	3.74037
12.94	3.74135
12.95	3.73412
12.96	3.73214
12.97	3.72918
12.98	3.73346
12.99	3.72918
13	3.73412
13.01	3.7328
13.02	3.73576
13.03	3.73543
13.04	3.73346
13.05	3.72885
13.06	3.73576
13.07	3.73576
13.08	3.73576
13.09	3.72918
13.1	3.73149
13.11	3.73214
13.12	3.72787
13.13	3.72589
13.14	3.72655
13.15	3.72754
13.16	3.72984
13.17	3.72918
13.18	3.72852
13.19	3.73083
13.2	3.73412
13.21	3.73675
13.22	3.73872
13.23	3.73576
13.24	3.73872
13.25	3.73477
13.26	3.72918
13.27	3.7282
13.28	3.73543
13.29	3.73675
13.3	3.73708
13.31	3.72688
13.32	3.73214
13.33	3.73346
13.34	3.73708
13.35	3.73379
13.36	3.7305
13.37	3.73181
13.38	3.73379
13.39	3.73576
13.4	3.73642
13.41	3.73477
13.42	3.73806
13.43	3.73181
13.44	3.72918
13.45	3.73017
13.46	3.72754
13.47	3.73675
13.48	3.73445
13.49	3.73576
13.5	3.73346
13.51	3.73543
13.52	3.73247
13.53	3.73839
13.54	3.73806
13.55	3.73609
13.56	3.7351
13.57	3.73741
13.58	3.73412
13.59	3.73872
13.6	3.73806
13.61	3.73905
13.62	3.73543
13.63	3.72918
13.64	3.7305
13.65	3.72918
13.66	3.72589
13.67	3.72918
13.68	3.72787
13.69	3.72951
13.7	3.7226
13.71	3.71668
13.72	3.72096
13.73	3.72458
13.74	3.72787
13.75	3.72227
13.76	3.72359
13.77	3.72293
13.78	3.72392
13.79	3.71931
13.8	3.72984
13.81	3.72589
13.82	3.72359
13.83	3.72622
13.84	3.7203
13.85	3.72458
13.86	3.71537
13.87	3.71833
13.88	3.7203
13.89	3.71997
13.9	3.72063
13.91	3.7157
13.92	3.71866
13.93	3.72359
13.94	3.72556
13.95	3.71997
13.96	3.718
13.97	3.72326
13.98	3.72392
13.99	3.72326
14	3.72556
14.01	3.71931
14.02	3.71438
14.03	3.718
14.04	3.72227
14.05	3.71306
14.06	3.71866
14.07	3.71372
14.08	3.71602
14.09	3.72326
14.1	3.71405
14.11	3.71767
14.12	3.71109
14.13	3.7157
14.14	3.71964
14.15	3.7203
14.16	3.71241
14.17	3.71142
14.18	3.70714
14.19	3.71405
14.2	3.71438
14.21	3.71866
14.22	3.72392
14.23	3.718
14.24	3.71537
14.25	3.71833
14.26	3.71537
14.27	3.71964
14.28	3.72227
14.29	3.70912
14.3	3.718
14.31	3.71076
14.32	3.71405
14.33	3.71504
14.34	3.70846
14.35	3.71109
14.36	3.71537
14.37	3.71602
14.38	3.71273
14.39	3.71504
14.4	3.70813
14.41	3.70977
14.42	3.70977
14.43	3.71208
14.44	3.71339
14.45	3.71438
14.46	3.71043
14.47	3.718
14.48	3.71109
14.49	3.71372
14.5	3.71701
14.51	3.71372
14.52	3.71602
14.53	3.71372
14.54	3.71438
14.55	3.71142
14.56	3.71142
14.57	3.71109
14.58	3.71142
14.59	3.71635
14.6	3.71602
14.61	3.71339
14.62	3.70813
14.63	3.71734
14.64	3.71866
14.65	3.71372
14.66	3.71372
14.67	3.7101
14.68	3.71142
14.69	3.71372
14.7	3.718
14.71	3.70813
14.72	3.71241
14.73	3.71504
14.74	3.71339
14.75	3.71241
14.76	3.70714
14.77	3.70418
14.78	3.70681
14.79	3.71273
14.8	3.70747
14.81	3.7078
14.82	3.71208
14.83	3.71175
14.84	3.70813
14.85	3.70944
14.86	3.70846
14.87	3.70747
14.88	3.70747
14.89	3.70484
14.9	3.71175
14.91	3.70977
14.92	3.70944
14.93	3.70418
14.94	3.70287
14.95	3.71043
14.96	3.70451
14.97	3.70385
14.98	3.70385
14.99	3.70714
15	3.70846
15.01	3.7055
15.02	3.70944
15.03	3.70089
15.04	3.70089
15.05	3.6976
15.06	3.70089
15.07	3.70023
15.08	3.70287
15.09	3.70813
15.1	3.70254
15.11	3.70287
15.12	3.70418
15.13	3.70484
15.14	3.69925
15.15	3.69694
15.16	3.69991
15.17	3.69365
15.18	3.69662
15.19	3.70352
15.2	3.70155
15.21	3.70254
15.22	3.69596
15.23	3.69925
15.24	3.69629
15.25	3.69596
15.26	3.69365
15.27	3.69793
15.28	3.70188
15.29	3.70122
15.3	3.70287
15.31	3.6953
15.32	3.69431
15.33	3.69629
15.34	3.6953
15.35	3.69793
15.36	3.69596
15.37	3.69464
15.38	3.70813
15.39	3.69991
15.4	3.69464
15.41	3.69563
15.42	3.69826
15.43	3.70319
15.44	3.70056
15.45	3.69662
15.46	3.69694
15.47	3.69793
15.48	3.68872
15.49	3.69168
15.5	3.69892
15.51	3.70089
15.52	3.6953
15.53	3.69826
15.54	3.6976
15.55	3.70023
15.56	3.69826
15.57	3.70023
15.58	3.6953
15.59	3.69398
15.6	3.69596
15.61	3.69793
15.62	3.70385
15.63	3.69793
15.64	3.69135
15.65	3.69168
15.66	3.69958
15.67	3.69925
15.68	3.69365
15.69	3.68905
15.7	3.69168
15.71	3.69563
15.72	3.69596
15.73	3.70089
15.74	3.69267
15.75	3.69464
15.76	3.69037
15.77	3.69464
15.78	3.69365
15.79	3.69135
15.8	3.69168
15.81	3.693
15.82	3.69069
15.83	3.68872
15.84	3.68806
15.85	3.69037
15.86	3.68773
15.87	3.68609
15.88	3.69135
15.89	3.69596
15.9	3.69497
15.91	3.69135
15.92	3.6953
15.93	3.69497
15.94	3.693
15.95	3.69793
15.96	3.69596
15.97	3.70122
15.98	3.69793
15.99	3.69727
16	3.70616
16.01	3.70287
16.02	3.69727
16.03	3.69431
16.04	3.70221
16.05	3.70155
16.06	3.6976
16.07	3.69826
16.08	3.70023
16.09	3.70484
16.1	3.70287
16.11	3.69793
16.12	3.69135
16.13	3.69859
16.14	3.69694
16.15	3.69859
16.16	3.69892
16.17	3.6953
16.18	3.69497
16.19	3.68839
16.2	3.68708
16.21	3.693
16.22	3.68773
16.23	3.68773
16.24	3.69102
16.25	3.68346
16.26	3.68839
16.27	3.68773
16.28	3.69168
16.29	3.69234
16.3	3.69201
16.31	3.68773
16.32	3.69168
16.33	3.69135
16.34	3.68708
16.35	3.68214
16.36	3.6828
16.37	3.68938
16.38	3.68543
16.39	3.68609
16.4	3.68971
16.41	3.68675
16.42	3.6851
16.43	3.68872
16.44	3.68839
16.45	3.68477
16.46	3.6805
16.47	3.68017
16.48	3.68675
16.49	3.67918
16.5	3.68675
16.51	3.68576
16.52	3.68412
16.53	3.67918
16.54	3.68642
16.55	3.68477
16.56	3.68247
16.57	3.67655
16.58	3.68247
16.59	3.68148
16.6	3.68083
16.61	3.68543
16.62	3.68379
16.63	3.68379
16.64	3.67918
16.65	3.68543
16.66	3.68379
16.67	3.6805
16.68	3.67819
16.69	3.67523
16.7	3.68543
16.71	3.6805
16.72	3.68214
16.73	3.67786
16.74	3.68181
16.75	3.68017
16.76	3.68675
16.77	3.68115
16.78	3.67754
16.79	3.67885
16.8	3.68477
16.81	3.68148
16.82	3.68115
16.83	3.67852
16.84	3.67918
16.85	3.68115
16.86	3.68379
16.87	3.68576
16.88	3.68412
16.89	3.68083
16.9	3.68806
16.91	3.68806
16.92	3.69267
16.93	3.68971
16.94	3.68379
16.95	3.69102
16.96	3.68543
16.97	3.68642
16.98	3.68346
16.99	3.68181
17	3.68083
17.01	3.68115
17.02	3.68806
17.03	3.693
17.04	3.68773
17.05	3.68642
17.06	3.68477
17.07	3.6805
17.08	3.68247
17.09	3.67885
17.1	3.67918
17.11	3.6828
17.12	3.67951
17.13	3.68477
17.14	3.68477
17.15	3.67655
17.16	3.6805
17.17	3.68609
17.18	3.68708
17.19	3.67885
17.2	3.67556
17.21	3.68477
17.22	3.68313
17.23	3.68609
17.24	3.68642
17.25	3.68247
17.26	3.68017
17.27	3.67951
17.28	3.68313
17.29	3.68181
17.3	3.68181
17.31	3.68148
17.32	3.68938
17.33	3.67951
17.34	3.68148
17.35	3.67754
17.36	3.68017
17.37	3.67655
17.38	3.68477
17.39	3.68313
17.4	3.67786
17.41	3.67622
17.42	3.68642
17.43	3.67589
17.44	3.67458
17.45	3.67458
17.46	3.67754
17.47	3.66734
17.48	3.67326
17.49	3.67359
17.5	3.67589
17.51	3.66898
17.52	3.66833
17.53	3.67096
17.54	3.67392
17.55	3.67754
17.56	3.67721
17.57	3.67227
17.58	3.67688
17.59	3.67359
17.6	3.67293
17.61	3.67161
17.62	3.6726
17.63	3.66734
17.64	3.67819
17.65	3.67589
17.66	3.68115
17.67	3.67655
17.68	3.67129
17.69	3.66898
17.7	3.67786
17.71	3.67622
17.72	3.67129
17.73	3.67359
17.74	3.67688
17.75	3.67458
17.76	3.67556
17.77	3.68083
17.78	3.67523
17.79	3.67688
17.8	3.6851
17.81	3.67194
17.82	3.67063
17.83	3.67227
17.84	3.67293
17.85	3.67721
17.86	3.68247
17.87	3.67161
17.88	3.67655
17.89	3.67425
17.9	3.66931
17.91	3.67622
17.92	3.67786
17.93	3.66964
17.94	3.66997
17.95	3.67655
17.96	3.67556
17.97	3.66931
17.98	3.67161
17.99	3.66997
18	3.67458
18.01	3.67523
18.02	3.67293
18.03	3.67096
18.04	3.66734
18.05	3.66635
18.06	3.67359
18.07	3.668
18.08	3.66931
18.09	3.66865
18.1	3.67326
18.11	3.66471
18.12	3.67194
18.13	3.67556
18.14	3.66964
18.15	3.67293
18.16	3.67326
18.17	3.66471
18.18	3.66438
18.19	3.66997
18.2	3.67425
18.21	3.66964
18.22	3.67096
18.23	3.67227
18.24	3.67293
18.25	3.66865
18.26	3.66865
18.27	3.67392
18.28	3.66504
18.29	3.66701
18.3	3.66865
18.31	3.66405
18.32	3.6703
18.33	3.67161
18.34	3.67227
18.35	3.66701
18.36	3.66175
18.37	3.66569
18.38	3.67326
18.39	3.66471
18.4	3.66767
18.41	3.66471
18.42	3.66734
18.43	3.67063
18.44	3.6703
18.45	3.66602
18.46	3.668
18.47	3.67326
18.48	3.66931
18.49	3.67227
18.5	3.67326
18.51	3.67227
18.52	3.66569
18.53	3.66865
18.54	3.67458
18.55	3.67063
18.56	3.66931
18.57	3.6726
18.58	3.66734
18.59	3.67589
18.6	3.6703
18.61	3.66536
18.62	3.66734
18.63	3.6749
18.64	3.67359
18.65	3.6726
18.66	3.66405
18.67	3.66964
18.68	3.66767
18.69	3.67458
18.7	3.668
18.71	3.66471
18.72	3.66504
18.73	3.66438
18.74	3.66109
18.75	3.6578
18.76	3.66306
18.77	3.66273
18.78	3.66964
18.79	3.66668
18.8	3.65977
18.81	3.66701
18.82	3.66734
18.83	3.66734
18.84	3.66536
18.85	3.6624
18.86	3.66471
18.87	3.66898
18.88	3.66504
18.89	3.66602
18.9	3.66306
18.91	3.6703
18.92	3.66043
18.93	3.66767
18.94	3.66306
18.95	3.66602
18.96	3.66635
18.97	3.6601
18.98	3.66043
18.99	3.66471
19	3.66602
19.01	3.67194
19.02	3.66339
19.03	3.668
19.04	3.66701
19.05	3.66569
19.06	3.66997
19.07	3.6749
19.08	3.66898
19.09	3.66207
19.1	3.66997
19.11	3.67392
19.12	3.66569
19.13	3.65977
19.14	3.66536
19.15	3.66504
19.16	3.66175
19.17	3.65714
19.18	3.66471
19.19	3.66405
19.2	3.66142
19.21	3.66471
19.22	3.66142
19.23	3.65879
19.24	3.6601
19.25	3.66306
19.26	3.66109
19.27	3.65813
19.28	3.66438
19.29	3.66635
19.3	3.65944
19.31	3.65846
19.32	3.6601
19.33	3.66438
19.34	3.66109
19.35	3.66833
19.36	3.66339
19.37	3.66273
19.38	3.66109
19.39	3.65944
19.4	3.66372
19.41	3.65977
19.42	3.66109
19.43	3.66668
19.44	3.65846
19.45	3.66471
19.46	3.66076
19.47	3.65879
19.48	3.65846
19.49	3.65484
19.5	3.66504
19.51	3.66635
19.52	3.6624
19.53	3.66504
19.54	3.66504
19.55	3.66207
19.56	3.66438
19.57	3.66438
19.58	3.6624
19.59	3.66372
19.6	3.66602
19.61	3.66207
19.62	3.66471
19.63	3.66405
19.64	3.6601
19.65	3.66076
19.66	3.65879
19.67	3.66372
19.68	3.66997
19.69	3.66405
19.7	3.66142
19.71	3.65714
19.72	3.65747
19.73	3.65944
19.74	3.66175
19.75	3.65714
19.76	3.65977
19.77	3.65615
19.78	3.66207
19.79	3.65681
19.8	3.6601
19.81	3.65747
19.82	3.65484
19.83	3.65188
19.84	3.65582
19.85	3.66339
19.86	3.66076
19.87	3.66405
19.88	3.65582
19.89	3.65254
19.9	3.65089
19.91	3.65582
19.92	3.65977
19.93	3.65714
19.94	3.65681
19.95	3.65747
19.96	3.65254
19.97	3.6555
19.98	3.65582
19.99	3.65846
20	3.65911
20.01	3.65451
20.02	3.65418
20.03	3.65451
20.04	3.65352
20.05	3.65747
20.06	3.65319
20.07	3.65155
20.08	3.65747
20.09	3.65023
20.1	3.65813
20.11	3.65155
20.12	3.65879
20.13	3.6578
20.14	3.65648
20.15	3.65813
20.16	3.66109
20.17	3.66372
20.18	3.65582
20.19	3.6555
20.2	3.65385
20.21	3.64957
20.22	3.6578
20.23	3.6555
20.24	3.65517
20.25	3.65451
20.26	3.6555
20.27	3.66339
20.28	3.6624
20.29	3.65155
20.3	3.65846
20.31	3.66273
20.32	3.65879
20.33	3.65648
20.34	3.65319
20.35	3.65977
20.36	3.65122
20.37	3.65122
20.38	3.65911
20.39	3.65846
20.4	3.65517
20.41	3.65385
20.42	3.65747
20.43	3.6555
20.44	3.66043
20.45	3.65352
20.46	3.65451
20.47	3.65615
20.48	3.65056
20.49	3.65122
20.5	3.65582
20.51	3.65714
20.52	3.6578
20.53	3.65977
20.54	3.65747
20.55	3.65319
20.56	3.65023
20.57	3.65352
20.58	3.65582
20.59	3.64957
20.6	3.65056
20.61	3.65451
20.62	3.65517
20.63	3.65681
20.64	3.64892
20.65	3.64892
20.66	3.64826
20.67	3.65385
20.68	3.65747
20.69	3.65517
20.7	3.64957
20.71	3.64925
20.72	3.65188
20.73	3.65286
20.74	3.65023
20.75	3.65089
20.76	3.64892
20.77	3.65681
20.78	3.65056
20.79	3.65221
20.8	3.64793
20.81	3.65254
20.82	3.65089
20.83	3.65023
20.84	3.65155
20.85	3.64826
20.86	3.65188
20.87	3.64332
20.88	3.65319
20.89	3.64694
20.9	3.64596
20.91	3.64628
20.92	3.64793
20.93	3.65122
20.94	3.65286
20.95	3.65352
20.96	3.65155
20.97	3.65023
20.98	3.64596
20.99	3.64727
21	3.65385
21.01	3.65254
21.02	3.65352
21.03	3.65155
21.04	3.65418
21.05	3.65122
21.06	3.64925
21.07	3.64793
21.08	3.65089
21.09	3.64892
21.1	3.64267
21.11	3.64694
21.12	3.65714
21.13	3.65846
21.14	3.65089
21.15	3.64628
21.16	3.64793
21.17	3.64925
21.18	3.64628
21.19	3.64694
21.2	3.64892
21.21	3.65221
21.22	3.64859
21.23	3.64628
21.24	3.6499
21.25	3.64925
21.26	3.64957
21.27	3.64497
21.28	3.65517
21.29	3.65385
21.3	3.65385
21.31	3.643
21.32	3.64464
21.33	3.65582
21.34	3.65385
21.35	3.65254
21.36	3.65254
21.37	3.65188
21.38	3.64694
21.39	3.64464
21.4	3.64859
21.41	3.65221
21.42	3.64892
21.43	3.65286
21.44	3.65517
21.45	3.65023
21.46	3.64694
21.47	3.64826
21.48	3.65286
21.49	3.65484
21.5	3.6555
21.51	3.65286
21.52	3.65188
21.53	3.65319
21.54	3.65188
21.55	3.65023
21.56	3.65352
21.57	3.65089
21.58	3.65122
21.59	3.6499
21.6	3.66109
21.61	3.6555
21.62	3.65155
21.63	3.65385
21.64	3.64628
21.65	3.64859
21.66	3.65582
21.67	3.65286
21.68	3.64694
21.69	3.64661
21.7	3.64661
21.71	3.65484
21.72	3.65023
21.73	3.64859
21.74	3.65155
21.75	3.64661
21.76	3.64859
21.77	3.64332
21.78	3.63872
21.79	3.64267
21.8	3.64694
21.81	3.6476
21.82	3.64003
21.83	3.64168
21.84	3.63971
21.85	3.63543
21.86	3.63938
21.87	3.64859
21.88	3.64332
21.89	3.64464
21.9	3.64102
21.91	3.64727
21.92	3.64596
21.93	3.64398
21.94	3.64563
21.95	3.64036
21.96	3.63905
21.97	3.65221
21.98	3.65056
21.99	3.65056
22	3.64168
22.01	3.64431
22.02	3.64596
22.03	3.64596
22.04	3.643
22.05	3.64892
22.06	3.64694
22.07	3.64892
22.08	3.65023
22.09	3.63806
22.1	3.64234
22.11	3.64332
22.12	3.64332
22.13	3.64596
22.14	3.64596
22.15	3.643
22.16	3.63839
22.17	3.64332
22.18	3.64431
22.19	3.64201
22.2	3.643
22.21	3.6453
22.22	3.63905
22.23	3.63839
22.24	3.643
22.25	3.64365
22.26	3.65122
22.27	3.65023
22.28	3.64332
22.29	3.6476
22.3	3.64694
22.31	3.64234
22.32	3.64925
22.33	3.64563
22.34	3.643
22.35	3.64332
22.36	3.64694
22.37	3.63806
22.38	3.64727
22.39	3.64694
22.4	3.64628
22.41	3.64497
22.42	3.64826
22.43	3.64234
22.44	3.64563
22.45	3.64135
22.46	3.63905
22.47	3.64727
22.48	3.64727
22.49	3.64826
22.5	3.64793
22.51	3.64793
22.52	3.64168
22.53	3.63642
22.54	3.64628
22.55	3.64628
22.56	3.63872
22.57	3.64365
22.58	3.64267
22.59	3.64497
22.6	3.63675
22.61	3.64003
22.62	3.63773
22.63	3.6351
22.64	3.64365
22.65	3.64135
22.66	3.64398
22.67	3.63872
22.68	3.64628
22.69	3.64069
22.7	3.63477
22.71	3.64003
22.72	3.63938
22.73	3.63839
22.74	3.63905
22.75	3.63148
22.76	3.63971
22.77	3.6453
22.78	3.64563
22.79	3.63773
22.8	3.64036
22.81	3.63938
22.82	3.64267
22.83	3.64234
22.84	3.64069
22.85	3.63905
22.86	3.64069
22.87	3.64431
22.88	3.64102
22.89	3.64628
22.9	3.64892
22.91	3.64727
22.92	3.64201
22.93	3.64628
22.94	3.64464
22.95	3.63971
22.96	3.64826
22.97	3.64563
22.98	3.64431
22.99	3.64168
23	3.64431
23.01	3.64135
23.02	3.64267
23.03	3.64497
23.04	3.64069
23.05	3.6453
23.06	3.64661
23.07	3.64661
23.08	3.64826
23.09	3.64234
23.1	3.63707
23.11	3.63938
23.12	3.64069
23.13	3.64497
23.14	3.64234
23.15	3.64168
23.16	3.63872
23.17	3.63346
23.18	3.63444
23.19	3.63839
23.2	3.63872
23.21	3.63707
23.22	3.64036
23.23	3.643
23.24	3.64003
23.25	3.6374
23.26	3.63839
23.27	3.63872
23.28	3.63609
23.29	3.64234
23.3	3.64003
23.31	3.63905
23.32	3.63773
23.33	3.63806
23.34	3.64365
23.35	3.63971
23.36	3.63675
23.37	3.6328
23.38	3.63905
23.39	3.6374
23.4	3.64497
23.41	3.64464
23.42	3.63576
23.43	3.64036
23.44	3.63839
23.45	3.63444
23.46	3.64332
23.47	3.64135
23.48	3.63938
23.49	3.63806
23.5	3.63576
23.51	3.63148
23.52	3.64135
23.53	3.64003
23.54	3.63576
23.55	3.63313
23.56	3.63938
23.57	3.63675
23.58	3.63938
23.59	3.63543
23.6	3.6351
23.61	3.63181
23.62	3.6328
23.63	3.63806
23.64	3.63806
23.65	3.64102
23.66	3.63642
23.67	3.63905
23.68	3.63905
23.69	3.62885
23.7	3.63477
23.71	3.62885
23.72	3.63576
23.73	3.63115
23.74	3.63675
23.75	3.6374
23.76	3.64168
23.77	3.64135
23.78	3.63411
23.79	3.63675
23.8	3.63872
23.81	3.6374
23.82	3.63477
23.83	3.63872
23.84	3.6374
23.85	3.64431
23.86	3.63938
23.87	3.63872
23.88	3.63707
23.89	3.63346
23.9	3.63214
23.91	3.63905
23.92	3.63707
23.93	3.63247
23.94	3.63971
23.95	3.64135
23.96	3.63773
23.97	3.63707
23.98	3.63378
23.99	3.63609
24	3.64135
24.01	3.63971
24.02	3.63609
24.03	3.64201
24.04	3.6351
24.05	3.63477
24.06	3.63477
24.07	3.63872
24.08	3.64003
24.09	3.63971
24.1	3.63806
24.11	3.63313
24.12	3.63905
24.13	3.63675
24.14	3.64003
24.15	3.64563
24.16	3.64003
24.17	3.63806
24.18	3.63609
24.19	3.63806
24.2	3.63872
24.21	3.63576
24.22	3.63346
24.23	3.63609
24.24	3.64168
24.25	3.6351
24.26	3.63444
24.27	3.62852
24.28	3.62556
24.29	3.63214
24.3	3.63115
24.31	3.63411
24.32	3.64003
24.33	3.63839
24.34	3.6374
24.35	3.63675
24.36	3.63247
24.37	3.63444
24.38	3.63806
24.39	3.64003
24.4	3.63576
24.41	3.63313
24.42	3.63115
24.43	3.64168
24.44	3.64365
24.45	3.64003
24.46	3.64234
24.47	3.64168
24.48	3.64497
24.49	3.6453
24.5	3.64727
24.51	3.64234
24.52	3.63609
24.53	3.643
24.54	3.63806
24.55	3.64003
24.56	3.63872
24.57	3.63707
24.58	3.63905
24.59	3.63839
24.6	3.63905
24.61	3.64267
24.62	3.63872
24.63	3.63905
24.64	3.63773
24.65	3.63675
24.66	3.63576
24.67	3.6374
24.68	3.63411
24.69	3.63773
24.7	3.63543
24.71	3.6351
24.72	3.6328
24.73	3.63707
24.74	3.64168
24.75	3.63773
24.76	3.63642
24.77	3.63839
24.78	3.6328
24.79	3.63411
24.8	3.63247
24.81	3.62819
24.82	3.62885
24.83	3.63477
24.84	3.63477
24.85	3.6328
24.86	3.62786
24.87	3.62721
24.88	3.63017
24.89	3.62951
24.9	3.63477
24.91	3.63477
24.92	3.63773
24.93	3.63082
24.94	3.63148
24.95	3.6328
24.96	3.63707
24.97	3.63378
24.98	3.6351
24.99	3.63247
25	3.63773
25.01	3.63609
25.02	3.63247
25.03	3.63411
25.04	3.64102
25.05	3.63675
25.06	3.64069
25.07	3.64168
25.08	3.63905
25.09	3.63082
25.1	3.63214
25.11	3.63872
25.12	3.63444
25.13	3.63642
25.14	3.6328
25.15	3.64003
25.16	3.6351
25.17	3.62852
25.18	3.63017
25.19	3.63477
25.2	3.63806
25.21	3.63576
25.22	3.64069
25.23	3.63378
25.24	3.63576
25.25	3.63247
25.26	3.63115
25.27	3.6305
25.28	3.63543
25.29	3.63214
25.3	3.63082
25.31	3.6305
25.32	3.62622
25.33	3.6351
25.34	3.62951
25.35	3.6351
25.36	3.63082
25.37	3.63543
25.38	3.63905
25.39	3.64003
25.4	3.63247
25.41	3.62721
25.42	3.63247
25.43	3.63017
25.44	3.63411
25.45	3.63938
25.46	3.62424
25.47	3.62424
25.48	3.63082
25.49	3.61997
25.5	3.62885
25.51	3.63148
25.52	3.63247
25.53	3.63181
25.54	3.63148
25.55	3.62721
25.56	3.62885
25.57	3.63411
25.58	3.63313
25.59	3.62819
25.6	3.6249
25.61	3.62392
25.62	3.62622
25.63	3.6328
25.64	3.63642
25.65	3.63346
25.66	3.62885
25.67	3.62227
25.68	3.62885
25.69	3.63017
25.7	3.62918
25.71	3.62786
25.72	3.62523
25.73	3.62523
25.74	3.62622
25.75	3.63181
25.76	3.63115
25.77	3.63148
25.78	3.62885
25.79	3.63115
25.8	3.63346
25.81	3.63444
25.82	3.62918
25.83	3.62819
25.84	3.62753
25.85	3.6305
25.86	3.63214
25.87	3.63444
25.88	3.64003
25.89	3.63313
25.9	3.63411
25.91	3.63477
25.92	3.6374
25.93	3.6328
25.94	3.62885
25.95	3.63313
25.96	3.64003
25.97	3.63411
25.98	3.64069
25.99	3.63313
26	3.6328
26.01	3.64201
26.02	3.63411
26.03	3.6351
26.04	3.63543
26.05	3.6351
26.06	3.63411
26.07	3.63477
26.08	3.63806
26.09	3.63707
26.1	3.63642
26.11	3.64201
26.12	3.6453
26.13	3.63872
26.14	3.63148
26.15	3.62096
26.16	3.62885
26.17	3.63543
26.18	3.62786
26.19	3.63411
26.2	3.62655
26.21	3.62852
26.22	3.62786
26.23	3.63181
26.24	3.62655
26.25	3.62622
26.26	3.62622
26.27	3.62688
26.28	3.62885
26.29	3.62819
26.3	3.62951
26.31	3.63214
26.32	3.63115
26.33	3.62984
26.34	3.63017
26.35	3.6249
26.36	3.62063
26.37	3.62753
26.38	3.62753
26.39	3.63181
26.4	3.62589
26.41	3.62753
26.42	3.62293
26.43	3.6249
26.44	3.62753
26.45	3.63247
26.46	3.62523
26.47	3.62227
26.48	3.62852
26.49	3.62655
26.5	3.62161
26.51	3.61997
26.52	3.61832
26.53	3.62227
26.54	3.61931
26.55	3.62096
26.56	3.62753
26.57	3.6328
26.58	3.62457
26.59	3.62161
26.6	3.62161
26.61	3.62622
26.62	3.6203
26.63	3.62359
26.64	3.61701
26.65	3.61898
26.66	3.62556
26.67	3.62523
26.68	3.62622
26.69	3.6249
26.7	3.62424
26.71	3.62063
26.72	3.6203
26.73	3.62589
26.74	3.62424
26.75	3.61832
26.76	3.61931
26.77	3.62523
26.78	3.62655
26.79	3.6203
26.8	3.62326
26.81	3.62688
26.82	3.62918
26.83	3.62852
26.84	3.62622
26.85	3.62721
26.86	3.62655
26.87	3.62293
26.88	3.62523
26.89	3.63148
26.9	3.62589
26.91	3.62622
26.92	3.61668
26.93	3.62359
26.94	3.62227
26.95	3.61865
26.96	3.62128
26.97	3.62293
26.98	3.62096
26.99	3.62655
27	3.62359
27.01	3.62721
27.02	3.62852
27.03	3.63247
27.04	3.6249
27.05	3.63181
27.06	3.62885
27.07	3.62885
27.08	3.63214
27.09	3.62819
27.1	3.62556
27.11	3.6226
27.12	3.62622
27.13	3.62293
27.14	3.62424
27.15	3.62786
27.16	3.62951
27.17	3.63115
27.18	3.62951
27.19	3.62786
27.2	3.6249
27.21	3.62523
27.22	3.62556
27.23	3.62786
27.24	3.62786
27.25	3.63181
27.26	3.62128
27.27	3.62655
27.28	3.62523
27.29	3.62523
27.3	3.62589
27.31	3.6305
27.32	3.62655
27.33	3.6226
27.34	3.62753
27.35	3.62688
27.36	3.62819
27.37	3.62556
27.38	3.63082
27.39	3.62523
27.4	3.62819
27.41	3.62688
27.42	3.62688
27.43	3.62161
27.44	3.62589
27.45	3.62885
27.46	3.62753
27.47	3.62852
27.48	3.62721
27.49	3.62984
27.5	3.62688
27.51	3.63017
27.52	3.62655
27.53	3.62161
27.54	3.62359
27.55	3.62457
27.56	3.62359
27.57	3.62424
27.58	3.62424
27.59	3.62359
27.6	3.61569
27.61	3.61799
27.62	3.61964
27.63	3.62227
27.64	3.61668
27.65	3.6249
27.66	3.61799
27.67	3.61635
27.68	3.61668
27.69	3.61701
27.7	3.61865
27.71	3.61635
27.72	3.62227
27.73	3.6249
27.74	3.62194
27.75	3.61668
27.76	3.62128
27.77	3.61931
27.78	3.62128
27.79	3.62096
27.8	3.61536
27.81	3.61438
27.82	3.61635
27.83	3.61865
27.84	3.61635
27.85	3.61405
27.86	3.62359
27.87	3.62063
27.88	3.6249
27.89	3.62326
27.9	3.61767
27.91	3.61865
27.92	3.61898
27.93	3.62096
27.94	3.62161
27.95	3.61997
27.96	3.62951
27.97	3.62063
27.98	3.61799
27.99	3.61832
28	3.62161
28.01	3.62457
28.02	3.62392
28.03	3.61898
28.04	3.61931
28.05	3.61635
28.06	3.61635
28.07	3.6226
28.08	3.62128
28.09	3.62622
28.1	3.62721
28.11	3.62359
28.12	3.6226
28.13	3.62424
28.14	3.6249
28.15	3.61964
28.16	3.62194
28.17	3.62523
28.18	3.6226
28.19	3.62392
28.2	3.6203
28.21	3.6249
28.22	3.62819
28.23	3.62194
28.24	3.61931
28.25	3.62523
28.26	3.62786
28.27	3.62753
28.28	3.6249
28.29	3.62885
28.3	3.62753
28.31	3.62424
28.32	3.62326
28.33	3.62655
28.34	3.62128
28.35	3.62424
28.36	3.61931
28.37	3.6226
28.38	3.62819
28.39	3.62096
28.4	3.62063
28.41	3.61964
28.42	3.62326
28.43	3.62885
28.44	3.62359
28.45	3.61536
28.46	3.62688
28.47	3.62556
28.48	3.61767
28.49	3.61832
28.5	3.61471
28.51	3.62589
28.52	3.62688
28.53	3.61767
28.54	3.61306
28.55	3.61931
28.56	3.61898
28.57	3.6124
28.58	3.61471
28.59	3.61898
28.6	3.61832
28.61	3.62161
28.62	3.62063
28.63	3.62063
28.64	3.62392
28.65	3.6101
28.66	3.61767
28.67	3.61701
28.68	3.61865
28.69	3.61964
28.7	3.61734
28.71	3.61536
28.72	3.61339
28.73	3.61405
28.74	3.61832
28.75	3.61767
28.76	3.61997
28.77	3.62359
28.78	3.61898
28.79	3.61865
28.8	3.6124
28.81	3.61734
28.82	3.62523
28.83	3.61931
28.84	3.62063
28.85	3.62622
28.86	3.62161
28.87	3.6203
28.88	3.62392
28.89	3.61767
28.9	3.61832
28.91	3.62063
28.92	3.61997
28.93	3.61701
28.94	3.61701
28.95	3.6226
28.96	3.62326
28.97	3.61471
28.98	3.62227
28.99	3.61734
29	3.62326
29.01	3.61734
29.02	3.61865
29.03	3.61799
29.04	3.61405
29.05	3.62194
29.06	3.6124
29.07	3.61306
29.08	3.61207
29.09	3.61734
29.1	3.61767
29.11	3.61339
29.12	3.61372
29.13	3.6101
29.14	3.61372
29.15	3.61701
29.16	3.61471
29.17	3.61503
29.18	3.61471
29.19	3.61668
29.2	3.61569
29.21	3.61569
29.22	3.61174
29.23	3.61832
29.24	3.61273
29.25	3.61142
29.26	3.61372
29.27	3.60451
29.28	3.60878
29.29	3.62161
29.3	3.61503
29.31	3.61207
29.32	3.61142
29.33	3.61174
29.34	3.61372
29.35	3.60747
29.36	3.60845
29.37	3.60089
29.38	3.61569
29.39	3.61832
29.4	3.61405
29.41	3.61076
29.42	3.61043
29.43	3.62096
29.44	3.61471
29.45	3.60977
29.46	3.61635
29.47	3.61076
29.48	3.61536
29.49	3.6101
29.5	3.61799
29.51	3.61799
29.52	3.61142
29.53	3.61602
29.54	3.61438
29.55	3.61668
29.56	3.61438
29.57	3.60615
29.58	3.61898
29.59	3.61734
29.6	3.60681
29.61	3.61076
29.62	3.61569
29.63	3.61339
29.64	3.61602
29.65	3.60813
29.66	3.61174
29.67	3.61569
29.68	3.61997
29.69	3.62589
29.7	3.61306
29.71	3.62063
29.72	3.61668
29.73	3.61602
29.74	3.61799
29.75	3.61734
29.76	3.61701
29.77	3.62359
29.78	3.62392
29.79	3.62161
29.8	3.62392
29.81	3.61865
29.82	3.61503
29.83	3.61635
29.84	3.61668
29.85	3.61569
29.86	3.61569
29.87	3.61503
29.88	3.61865
29.89	3.61997
29.9	3.61569
29.91	3.61569
29.92	3.61931
29.93	3.61536
29.94	3.61734
29.95	3.61306
29.96	3.61503
29.97	3.61964
29.98	3.61306
29.99	3.61207
30	3.61043
