"BIO-KINE ASCII FILE"
"_COMMENT"	"MOS-500 Spectrometer"
"_COMMENT"	"Kinetics measurement"
"_COMMENT"	"Y Unit : Volt,  X Unit : s"
"_COMMENT"	"Excitation wavelength : 380 nm"
"_COMMENT"	"Fentes bandwidth =  1 nm"
"_COMMENT"	"HV= 625V"
"_COMMENT"	"Timebase  1 =  .01 s   3001 pts"
"_SFM"	"SFM-400 /S  Advanced mode"
"_SFM"	"Ratio : S1: 2.5, S2: 0, S3: 0, S4: 1"
"_SFM"	"Content : S1: , S2: , S3: , S4:"
"_SFM"	"Concentration : S1: , S2: , S3: , S4:"
"_SFM"	"Total volume : 209 µl  Flow : 3.5 mL/s"
"_SFM"	"Acquisition start :  10 ms before stop"
"_SFM"	"cuve=FC-15, s1=10 ml , s2=10 ml , s3=10 ml , s4=1.9 ml"
"_UNITX"	"s"
"_UNITY"	"Volt"
"_DELTAX"	0
"_DATA"
1e-300	6.2786
0.01	6.67894
0.02	6.74309
0.03	6.76447
0.04	6.78881
0.05	6.80526
0.06	6.81677
0.07	6.82072
0.08	6.825
0.09	6.825
0.1	6.82138
0.11	6.83059
0.12	6.8296
0.13	6.81941
0.14	6.82368
0.15	6.83125
0.16	6.8375
0.17	6.82599
0.18	6.81612
0.19	6.81349
0.2	6.81349
0.21	6.81513
0.22	6.8125
0.23	6.8171
0.24	6.80296
0.25	6.79868
0.26	6.79934
0.27	6.79276
0.28	6.79046
0.29	6.78191
0.3	6.77434
0.31	6.77533
0.32	6.77894
0.33	6.77138
0.34	6.76875
0.35	6.76184
0.36	6.7546
0.37	6.76085
0.38	6.7569
0.39	6.7546
0.4	6.74111
0.41	6.74736
0.42	6.74309
0.43	6.73223
0.44	6.73026
0.45	6.72335
0.46	6.72664
0.47	6.71546
0.48	6.70493
0.49	6.70098
0.5	6.7023
0.51	6.69934
0.52	6.69177
0.53	6.69572
0.54	6.68552
0.55	6.68026
0.56	6.67993
0.57	6.67138
0.58	6.66118
0.59	6.65624
0.6	6.64966
0.61	6.64802
0.62	6.65032
0.63	6.64045
0.64	6.63585
0.65	6.63059
0.66	6.6319
0.67	6.62795
0.68	6.60986
0.69	6.60953
0.7	6.61282
0.71	6.60493
0.72	6.6046
0.73	6.59802
0.74	6.59308
0.75	6.58091
0.76	6.58026
0.77	6.57104
0.78	6.55887
0.79	6.56578
0.8	6.55657
0.81	6.55131
0.82	6.54473
0.83	6.53749
0.84	6.53321
0.85	6.5296
0.86	6.53453
0.87	6.52039
0.88	6.52006
0.89	6.5171
0.9	6.50295
0.91	6.50098
0.92	6.50163
0.93	6.49012
0.94	6.49144
0.95	6.48025
0.96	6.47433
0.97	6.47005
0.98	6.45788
0.99	6.46282
1	6.45986
1.01	6.45821
1.02	6.44045
1.03	6.43387
1.04	6.42696
1.05	6.42828
1.06	6.42499
1.07	6.42466
1.08	6.41512
1.09	6.40525
1.1	6.40426
1.11	6.39505
1.12	6.39275
1.13	6.3888
1.14	6.38749
1.15	6.37301
1.16	6.37005
1.17	6.36972
1.18	6.36347
1.19	6.35492
1.2	6.35196
1.21	6.34933
1.22	6.34472
1.23	6.3388
1.24	6.33321
1.25	6.33156
1.26	6.31841
1.27	6.31512
1.28	6.3036
1.29	6.3115
1.3	6.3036
1.31	6.29275
1.32	6.2911
1.33	6.28354
1.34	6.28156
1.35	6.27794
1.36	6.27367
1.37	6.27235
1.38	6.26511
1.39	6.25689
1.4	6.24932
1.41	6.24307
1.42	6.23452
1.43	6.22334
1.44	6.21939
1.45	6.22301
1.46	6.21018
1.47	6.20821
1.48	6.2036
1.49	6.19669
1.5	6.19176
1.51	6.18814
1.52	6.18255
1.53	6.17301
1.54	6.17465
1.55	6.16774
1.56	6.16018
1.57	6.15524
1.58	6.14998
1.59	6.14208
1.6	6.13649
1.61	6.12761
1.62	6.12169
1.63	6.12728
1.64	6.11116
1.65	6.10754
1.66	6.10195
1.67	6.09603
1.68	6.09439
1.69	6.09011
1.7	6.08156
1.71	6.07662
1.72	6.07366
1.73	6.06577
1.74	6.0605
1.75	6.04866
1.76	6.05162
1.77	6.04241
1.78	6.03912
1.79	6.03748
1.8	6.02859
1.81	6.03452
1.82	6.02136
1.83	6.00688
1.84	6.0105
1.85	6.00655
1.86	6.00787
1.87	5.99011
1.88	5.98419
1.89	5.98517
1.9	5.97892
1.91	5.97432
1.92	5.96675
1.93	5.96905
1.94	5.9559
1.95	5.9457
1.96	5.93945
1.97	5.94142
1.98	5.9332
1.99	5.93254
2	5.91938
2.01	5.91905
2.02	5.90688
2.03	5.91017
2.04	5.90754
2.05	5.90589
2.06	5.89339
2.07	5.88188
2.08	5.88122
2.09	5.8776
2.1	5.86806
2.11	5.86445
2.12	5.87168
2.13	5.86116
2.14	5.8526
2.15	5.8503
2.16	5.83714
2.17	5.83977
2.18	5.82596
2.19	5.82267
2.2	5.82464
2.21	5.81379
2.22	5.80984
2.23	5.81083
2.24	5.80227
2.25	5.79767
2.26	5.7901
2.27	5.78188
2.28	5.77398
2.29	5.7799
2.3	5.76543
2.31	5.75984
2.32	5.7549
2.33	5.74503
2.34	5.74503
2.35	5.74109
2.36	5.73549
2.37	5.72431
2.38	5.72135
2.39	5.72036
2.4	5.71839
2.41	5.71214
2.42	5.70622
2.43	5.70062
2.44	5.69569
2.45	5.68911
2.46	5.68845
2.47	5.67497
2.48	5.6753
2.49	5.67233
2.5	5.66608
2.51	5.65885
2.52	5.65391
2.53	5.64339
2.54	5.64997
2.55	5.64273
2.56	5.63253
2.57	5.62628
2.58	5.62135
2.59	5.61937
2.6	5.62102
2.61	5.60885
2.62	5.6049
2.63	5.60753
2.64	5.58648
2.65	5.57924
2.66	5.57431
2.67	5.57398
2.68	5.56509
2.69	5.55983
2.7	5.5595
2.71	5.55917
2.72	5.55621
2.73	5.55161
2.74	5.54634
2.75	5.53648
2.76	5.53417
2.77	5.52924
2.78	5.52595
2.79	5.52167
2.8	5.51542
2.81	5.51213
2.82	5.50621
2.83	5.4993
2.84	5.49075
2.85	5.48746
2.86	5.48318
2.87	5.48582
2.88	5.48154
2.89	5.46904
2.9	5.46345
2.91	5.46213
2.92	5.45128
2.93	5.44864
2.94	5.44634
2.95	5.44437
2.96	5.44371
2.97	5.43483
2.98	5.42627
2.99	5.42299
3	5.41476
3.01	5.40226
3.02	5.40555
3.03	5.39733
3.04	5.39338
3.05	5.38121
3.06	5.38154
3.07	5.37825
3.08	5.37463
3.09	5.37035
3.1	5.36838
3.11	5.36246
3.12	5.35094
3.13	5.35259
3.14	5.34765
3.15	5.34338
3.16	5.33482
3.17	5.33219
3.18	5.33417
3.19	5.32035
3.2	5.31936
3.21	5.3164
3.22	5.30752
3.23	5.3039
3.24	5.29601
3.25	5.29436
3.26	5.28318
3.27	5.2891
3.28	5.2789
3.29	5.27397
3.3	5.27035
3.31	5.26311
3.32	5.26706
3.33	5.2539
3.34	5.25555
3.35	5.2493
3.36	5.25259
3.37	5.24206
3.38	5.23844
3.39	5.2289
3.4	5.22989
3.41	5.22462
3.42	5.22035
3.43	5.21508
3.44	5.20653
3.45	5.21048
3.46	5.20686
3.47	5.19995
3.48	5.18811
3.49	5.18153
3.5	5.17693
3.51	5.17462
3.52	5.17331
3.53	5.1664
3.54	5.16081
3.55	5.15916
3.56	5.1516
3.57	5.14798
3.58	5.13844
3.59	5.13548
3.6	5.13284
3.61	5.1289
3.62	5.12462
3.63	5.11278
3.64	5.1164
3.65	5.11311
3.66	5.10784
3.67	5.10258
3.68	5.10423
3.69	5.09469
3.7	5.09699
3.71	5.08745
3.72	5.07824
3.73	5.07824
3.74	5.06574
3.75	5.07001
3.76	5.05653
3.77	5.0539
3.78	5.0562
3.79	5.04962
3.8	5.04863
3.81	5.03909
3.82	5.03218
3.83	5.03547
3.84	5.0335
3.85	5.02232
3.86	5.02528
3.87	5.02824
3.88	5.01804
3.89	5.01179
3.9	4.99731
3.91	5.00028
3.92	4.99731
3.93	4.99468
3.94	4.99106
3.95	4.98646
3.96	4.98284
3.97	4.97429
3.98	4.96606
3.99	4.96541
4	4.96179
4.01	4.96639
4.02	4.96014
4.03	4.95883
4.04	4.95619
4.05	4.94534
4.06	4.94369
4.07	4.93942
4.08	4.9335
4.09	4.92527
4.1	4.91836
4.11	4.92363
4.12	4.91606
4.13	4.90652
4.14	4.90389
4.15	4.90521
4.16	4.90356
4.17	4.88514
4.18	4.88448
4.19	4.88251
4.2	4.87889
4.21	4.87527
4.22	4.87198
4.23	4.87198
4.24	4.86705
4.25	4.86277
4.26	4.86738
4.27	4.85981
4.28	4.8552
4.29	4.84238
4.3	4.84172
4.31	4.84665
4.32	4.8381
4.33	4.83678
4.34	4.8404
4.35	4.82922
4.36	4.81968
4.37	4.82362
4.38	4.82198
4.39	4.81836
4.4	4.80685
4.41	4.80422
4.42	4.80126
4.43	4.79435
4.44	4.78744
4.45	4.78251
4.46	4.78579
4.47	4.78086
4.48	4.78316
4.49	4.77132
4.5	4.7654
4.51	4.76902
4.52	4.76079
4.53	4.76112
4.54	4.75652
4.55	4.75191
4.56	4.74204
4.57	4.74171
4.58	4.73941
4.59	4.73448
4.6	4.72987
4.61	4.72856
4.62	4.71935
4.63	4.71967
4.64	4.71573
4.65	4.70783
4.66	4.71013
4.67	4.70849
4.68	4.69829
4.69	4.69862
4.7	4.70092
4.71	4.695
4.72	4.68711
4.73	4.69204
4.74	4.67395
4.75	4.67494
4.76	4.67527
4.77	4.6723
4.78	4.66638
4.79	4.66507
4.8	4.66145
4.81	4.66079
4.82	4.65388
4.83	4.65092
4.84	4.64961
4.85	4.64665
4.86	4.63974
4.87	4.63974
4.88	4.63678
4.89	4.63579
4.9	4.63546
4.91	4.62592
4.92	4.62428
4.93	4.61671
4.94	4.61704
4.95	4.62033
4.96	4.61276
4.97	4.60618
4.98	4.60553
4.99	4.60224
5	4.60158
5.01	4.60092
5.02	4.59566
5.03	4.59368
5.04	4.58875
5.05	4.58381
5.06	4.57888
5.07	4.57526
5.08	4.57428
5.09	4.57131
5.1	4.56408
5.11	4.55881
5.12	4.55914
5.13	4.56079
5.14	4.55454
5.15	4.55552
5.16	4.54763
5.17	4.545
5.18	4.5427
5.19	4.54171
5.2	4.53875
5.21	4.53842
5.22	4.53677
5.23	4.52855
5.24	4.52559
5.25	4.53151
5.26	4.51572
5.27	4.51704
5.28	4.51506
5.29	4.50914
5.3	4.50454
5.31	4.49697
5.32	4.49861
5.33	4.49467
5.34	4.49533
5.35	4.49434
5.36	4.49565
5.37	4.48513
5.38	4.47986
5.39	4.48217
5.4	4.47526
5.41	4.47394
5.42	4.46901
5.43	4.46638
5.44	4.46835
5.45	4.45947
5.46	4.44598
5.47	4.45421
5.48	4.45092
5.49	4.45585
5.5	4.45388
5.51	4.4519
5.52	4.44302
5.53	4.43611
5.54	4.4348
5.55	4.43381
5.56	4.43381
5.57	4.42756
5.58	4.42789
5.59	4.42526
5.6	4.41506
5.61	4.41078
5.62	4.4121
5.63	4.41045
5.64	4.40848
5.65	4.40881
5.66	4.40552
5.67	4.40552
5.68	4.39927
5.69	4.39269
5.7	4.38118
5.71	4.38216
5.72	4.38183
5.73	4.38808
5.74	4.38348
5.75	4.37591
5.76	4.37328
5.77	4.36703
5.78	4.36802
5.79	4.36407
5.8	4.36637
5.81	4.35749
5.82	4.35322
5.83	4.35354
5.84	4.35322
5.85	4.35289
5.86	4.35124
5.87	4.34104
5.88	4.33874
5.89	4.33512
5.9	4.34203
5.91	4.34433
5.92	4.33414
5.93	4.33348
5.94	4.33183
5.95	4.33282
5.96	4.3292
5.97	4.32262
5.98	4.31966
5.99	4.31867
6	4.30585
6.01	4.31012
6.02	4.31374
6.03	4.31111
6.04	4.30683
6.05	4.30025
6.06	4.30256
6.07	4.29861
6.08	4.29861
6.09	4.29598
6.1	4.2917
6.11	4.29335
6.12	4.28117
6.13	4.28348
6.14	4.27953
6.15	4.27427
6.16	4.28677
6.17	4.28019
6.18	4.27229
6.19	4.27427
6.2	4.26867
6.21	4.26505
6.22	4.2644
6.23	4.26703
6.24	4.2542
6.25	4.25387
6.26	4.25124
6.27	4.25321
6.28	4.2519
6.29	4.25486
6.3	4.24499
6.31	4.2417
6.32	4.24598
6.33	4.25157
6.34	4.24038
6.35	4.22821
6.36	4.23019
6.37	4.23282
6.38	4.23019
6.39	4.2269
6.4	4.23216
6.41	4.22262
6.42	4.22459
6.43	4.21703
6.44	4.21571
6.45	4.20913
6.46	4.21111
6.47	4.21143
6.48	4.2065
6.49	4.21209
6.5	4.20584
6.51	4.20321
6.52	4.19992
6.53	4.19893
6.54	4.18907
6.55	4.19663
6.56	4.19367
6.57	4.19038
6.58	4.18775
6.59	4.18972
6.6	4.19071
6.61	4.18051
6.62	4.17459
6.63	4.17229
6.64	4.17624
6.65	4.17821
6.66	4.16571
6.67	4.16604
6.68	4.17229
6.69	4.17163
6.7	4.15946
6.71	4.16703
6.72	4.15387
6.73	4.15255
6.74	4.15683
6.75	4.1588
6.76	4.15913
6.77	4.14893
6.78	4.15255
6.79	4.14959
6.8	4.14499
6.81	4.14301
6.82	4.14367
6.83	4.13446
6.84	4.13479
6.85	4.13676
6.86	4.13643
6.87	4.13446
6.88	4.13775
6.89	4.13051
6.9	4.13413
6.91	4.13117
6.92	4.12788
6.93	4.11077
6.94	4.11604
6.95	4.11768
6.96	4.11735
6.97	4.11341
6.98	4.11472
6.99	4.1111
7	4.11242
7.01	4.10847
7.02	4.11341
7.03	4.10321
7.04	4.10584
7.05	4.0986
7.06	4.09663
7.07	4.10354
7.08	4.10156
7.09	4.09663
7.1	4.09367
7.11	4.09729
7.12	4.0986
7.13	4.08873
7.14	4.09071
7.15	4.08873
7.16	4.0861
7.17	4.08215
7.18	4.07985
7.19	4.07656
7.2	4.0815
7.21	4.0861
7.22	4.0815
7.23	4.07919
7.24	4.07327
7.25	4.07031
7.26	4.0713
7.27	4.07327
7.28	4.06307
7.29	4.05979
7.3	4.06242
7.31	4.05715
7.32	4.06768
7.33	4.05847
7.34	4.06406
7.35	4.05682
7.36	4.05419
7.37	4.05222
7.38	4.05353
7.39	4.05419
7.4	4.05386
7.41	4.04367
7.42	4.04367
7.43	4.04071
7.44	4.04202
7.45	4.03906
7.46	4.03577
7.47	4.03544
7.48	4.0338
7.49	4.03051
7.5	4.02557
7.51	4.02623
7.52	4.03347
7.53	4.03018
7.54	4.02853
7.55	4.02459
7.56	4.02064
7.57	4.02097
7.58	4.01472
7.59	4.01965
7.6	4.02228
7.61	4.01044
7.62	4.0088
7.63	4.01176
7.64	4.01044
7.65	4.00518
7.66	3.99926
7.67	4.00255
7.68	4.00748
7.69	4.0032
7.7	3.99597
7.71	3.99465
7.72	3.98807
7.73	3.98577
7.74	3.99728
7.75	3.9986
7.76	3.98972
7.77	3.9838
7.78	3.98412
7.79	3.99005
7.8	3.9838
7.81	3.98939
7.82	3.98478
7.83	3.98248
7.84	3.98445
7.85	3.98412
7.86	3.98116
7.87	3.97459
7.88	3.97689
7.89	3.97755
7.9	3.97985
7.91	3.98084
7.92	3.97886
7.93	3.97755
7.94	3.96998
7.95	3.97031
7.96	3.96406
7.97	3.96603
7.98	3.97064
7.99	3.97228
8	3.96505
8.01	3.96899
8.02	3.96636
8.03	3.96143
8.04	3.95715
8.05	3.95748
8.06	3.95978
8.07	3.95781
8.08	3.95748
8.09	3.95353
8.1	3.95353
8.11	3.95024
8.12	3.9486
8.13	3.9361
8.14	3.94004
8.15	3.94432
8.16	3.94728
8.17	3.94235
8.18	3.94136
8.19	3.94235
8.2	3.93774
8.21	3.9384
8.22	3.94202
8.23	3.93379
8.24	3.9305
8.25	3.93412
8.26	3.93445
8.27	3.93708
8.28	3.93083
8.29	3.92557
8.3	3.92919
8.31	3.92787
8.32	3.918
8.33	3.92064
8.34	3.92754
8.35	3.93314
8.36	3.92294
8.37	3.92228
8.38	3.91702
8.39	3.91274
8.4	3.91439
8.41	3.918
8.42	3.91669
8.43	3.91866
8.44	3.91373
8.45	3.91241
8.46	3.90583
8.47	3.91208
8.48	3.91175
8.49	3.91011
8.5	3.90583
8.51	3.90846
8.52	3.91011
8.53	3.90682
8.54	3.89827
8.55	3.90024
8.56	3.9032
8.57	3.90386
8.58	3.90057
8.59	3.89596
8.6	3.89761
8.61	3.89794
8.62	3.89103
8.63	3.89366
8.64	3.89695
8.65	3.89399
8.66	3.90057
8.67	3.89892
8.68	3.88708
8.69	3.88445
8.7	3.88412
8.71	3.88774
8.72	3.88741
8.73	3.88478
8.74	3.88675
8.75	3.88478
8.76	3.87754
8.77	3.87228
8.78	3.87656
8.79	3.87688
8.8	3.8759
8.81	3.87557
8.82	3.87688
8.83	3.87491
8.84	3.87491
8.85	3.87458
8.86	3.87195
8.87	3.87721
8.88	3.87063
8.89	3.86504
8.9	3.87359
8.91	3.86636
8.92	3.86702
8.93	3.87228
8.94	3.87327
8.95	3.86077
8.96	3.86504
8.97	3.8657
8.98	3.86833
8.99	3.87096
9	3.86767
9.01	3.8634
9.02	3.86011
9.03	3.85452
9.04	3.85748
9.05	3.8634
9.06	3.8634
9.07	3.85221
9.08	3.85748
9.09	3.85945
9.1	3.85649
9.11	3.85583
9.12	3.84991
9.13	3.84991
9.14	3.85123
9.15	3.85221
9.16	3.85155
9.17	3.84366
9.18	3.84432
9.19	3.84498
9.2	3.83938
9.21	3.84498
9.22	3.84103
9.23	3.83905
9.24	3.843
9.25	3.83971
9.26	3.83708
9.27	3.83708
9.28	3.83215
9.29	3.83248
9.3	3.843
9.31	3.83445
9.32	3.83609
9.33	3.83478
9.34	3.8384
9.35	3.84201
9.36	3.83938
9.37	3.83313
9.38	3.83412
9.39	3.83478
9.4	3.82294
9.41	3.82491
9.42	3.83182
9.43	3.82886
9.44	3.83379
9.45	3.83017
9.46	3.82524
9.47	3.82853
9.48	3.83116
9.49	3.82228
9.5	3.8203
9.51	3.81899
9.52	3.82162
9.53	3.818
9.54	3.81372
9.55	3.8203
9.56	3.81932
9.57	3.82129
9.58	3.81274
9.59	3.81833
9.6	3.81701
9.61	3.81011
9.62	3.80978
9.63	3.81142
9.64	3.80616
9.65	3.81044
9.66	3.8157
9.67	3.81405
9.68	3.80846
9.69	3.80649
9.7	3.80583
9.71	3.80221
9.72	3.8055
9.73	3.81044
9.74	3.81076
9.75	3.80978
9.76	3.80418
9.77	3.79695
9.78	3.80188
9.79	3.80682
9.8	3.80682
9.81	3.79761
9.82	3.80155
9.83	3.80254
9.84	3.80122
9.85	3.80122
9.86	3.79728
9.87	3.79662
9.88	3.80122
9.89	3.79925
9.9	3.79695
9.91	3.79267
9.92	3.80122
9.93	3.79793
9.94	3.79826
9.95	3.79366
9.96	3.80155
9.97	3.80188
9.98	3.79892
9.99	3.79596
10	3.79793
10.01	3.79958
10.02	3.79201
10.03	3.79399
10.04	3.79136
10.05	3.78083
10.06	3.78807
10.07	3.78938
10.08	3.79267
10.09	3.79465
10.1	3.79234
10.11	3.78708
10.12	3.79004
10.13	3.78182
10.14	3.78478
10.15	3.78379
10.16	3.78346
10.17	3.79201
10.18	3.78576
10.19	3.78774
10.2	3.78543
10.21	3.7805
10.22	3.78149
10.23	3.77951
10.24	3.77721
10.25	3.77293
10.26	3.7828
10.27	3.78511
10.28	3.77721
10.29	3.77754
10.3	3.77688
10.31	3.77425
10.32	3.7703
10.33	3.76899
10.34	3.78017
10.35	3.76997
10.36	3.77721
10.37	3.768
10.38	3.76504
10.39	3.76438
10.4	3.76668
10.41	3.76438
10.42	3.76372
10.43	3.76932
10.44	3.76635
10.45	3.76339
10.46	3.76668
10.47	3.75978
10.48	3.76537
10.49	3.76438
10.5	3.76208
10.51	3.75451
10.52	3.76307
10.53	3.75978
10.54	3.75747
10.55	3.75583
10.56	3.76175
10.57	3.75813
10.58	3.75616
10.59	3.7532
10.6	3.76142
10.61	3.76142
10.62	3.75813
10.63	3.7555
10.64	3.74991
10.65	3.74991
10.66	3.75089
10.67	3.75649
10.68	3.76274
10.69	3.75846
10.7	3.75681
10.71	3.75122
10.72	3.74629
10.73	3.7555
10.74	3.75056
10.75	3.74662
10.76	3.74859
10.77	3.75122
10.78	3.7532
10.79	3.75024
10.8	3.75484
10.81	3.74958
10.82	3.74596
10.83	3.75287
10.84	3.7476
10.85	3.74596
10.86	3.75024
10.87	3.75418
10.88	3.75122
10.89	3.74399
10.9	3.75024
10.91	3.74991
10.92	3.74728
10.93	3.74991
10.94	3.74859
10.95	3.7476
10.96	3.74662
10.97	3.74728
10.98	3.74333
10.99	3.74695
11	3.74464
11.01	3.74695
11.02	3.74366
11.03	3.74695
11.04	3.74695
11.05	3.74596
11.06	3.74958
11.07	3.7351
11.08	3.74102
11.09	3.73609
11.1	3.74135
11.11	3.73346
11.12	3.73477
11.13	3.73675
11.14	3.73938
11.15	3.73971
11.16	3.74102
11.17	3.74135
11.18	3.74037
11.19	3.7351
11.2	3.73774
11.21	3.73445
11.22	3.73379
11.23	3.73938
11.24	3.73412
11.25	3.73708
11.26	3.73214
11.27	3.72951
11.28	3.72754
11.29	3.73477
11.3	3.73247
11.31	3.7351
11.32	3.72918
11.33	3.72688
11.34	3.72951
11.35	3.72852
11.36	3.72458
11.37	3.72392
11.38	3.7305
11.39	3.7328
11.4	3.73445
11.41	3.72589
11.42	3.73247
11.43	3.72754
11.44	3.72392
11.45	3.72655
11.46	3.73116
11.47	3.73247
11.48	3.73313
11.49	3.72787
11.5	3.72655
11.51	3.72195
11.52	3.72425
11.53	3.73379
11.54	3.73741
11.55	3.72852
11.56	3.73313
11.57	3.72787
11.58	3.72491
11.59	3.72622
11.6	3.72787
11.61	3.72129
11.62	3.72392
11.63	3.72162
11.64	3.7226
11.65	3.72326
11.66	3.72293
11.67	3.71767
11.68	3.71668
11.69	3.72227
11.7	3.7203
11.71	3.71701
11.72	3.71438
11.73	3.71898
11.74	3.72063
11.75	3.71734
11.76	3.70813
11.77	3.70944
11.78	3.71405
11.79	3.71405
11.8	3.71142
11.81	3.71109
11.82	3.71537
11.83	3.70813
11.84	3.71504
11.85	3.71241
11.86	3.70912
11.87	3.71076
11.88	3.71339
11.89	3.71175
11.9	3.70648
11.91	3.70912
11.92	3.70517
11.93	3.70616
11.94	3.70879
11.95	3.70616
11.96	3.70221
11.97	3.70056
11.98	3.70418
11.99	3.71339
12	3.71241
12.01	3.7078
12.02	3.70944
12.03	3.7078
12.04	3.70583
12.05	3.70648
12.06	3.70944
12.07	3.70451
12.08	3.70616
12.09	3.70747
12.1	3.70287
12.11	3.70023
12.12	3.70648
12.13	3.70056
12.14	3.69727
12.15	3.70221
12.16	3.70714
12.17	3.70813
12.18	3.70648
12.19	3.70583
12.2	3.70879
12.21	3.70944
12.22	3.70944
12.23	3.70517
12.24	3.7078
12.25	3.70451
12.26	3.70155
12.27	3.70056
12.28	3.70681
12.29	3.7055
12.3	3.70681
12.31	3.70385
12.32	3.70254
12.33	3.70188
12.34	3.70352
12.35	3.70155
12.36	3.69991
12.37	3.69925
12.38	3.70023
12.39	3.69267
12.4	3.69629
12.41	3.69431
12.42	3.69596
12.43	3.69464
12.44	3.69333
12.45	3.69727
12.46	3.69234
12.47	3.68609
12.48	3.6953
12.49	3.69727
12.5	3.69201
12.51	3.68839
12.52	3.6953
12.53	3.693
12.54	3.69037
12.55	3.69398
12.56	3.70089
12.57	3.69497
12.58	3.69431
12.59	3.69168
12.6	3.69563
12.61	3.68905
12.62	3.68313
12.63	3.68971
12.64	3.69398
12.65	3.68839
12.66	3.69365
12.67	3.69497
12.68	3.69464
12.69	3.69398
12.7	3.69135
12.71	3.69102
12.72	3.68839
12.73	3.69004
12.74	3.68543
12.75	3.68181
12.76	3.6874
12.77	3.68839
12.78	3.69102
12.79	3.68708
12.8	3.68148
12.81	3.68609
12.82	3.69333
12.83	3.68905
12.84	3.68971
12.85	3.6851
12.86	3.68148
12.87	3.6805
12.88	3.68379
12.89	3.68148
12.9	3.67786
12.91	3.68148
12.92	3.68115
12.93	3.67754
12.94	3.68083
12.95	3.68313
12.96	3.68313
12.97	3.68313
12.98	3.68017
12.99	3.68576
13	3.6828
13.01	3.68773
13.02	3.68214
13.03	3.6805
13.04	3.67556
13.05	3.67293
13.06	3.68214
13.07	3.68642
13.08	3.6851
13.09	3.67885
13.1	3.67918
13.11	3.68083
13.12	3.67852
13.13	3.67688
13.14	3.67688
13.15	3.68115
13.16	3.67227
13.17	3.66833
13.18	3.67951
13.19	3.67622
13.2	3.67655
13.21	3.67819
13.22	3.68083
13.23	3.67951
13.24	3.68017
13.25	3.68017
13.26	3.67852
13.27	3.6805
13.28	3.67392
13.29	3.6726
13.3	3.68017
13.31	3.68313
13.32	3.67161
13.33	3.67589
13.34	3.6749
13.35	3.67984
13.36	3.67688
13.37	3.67227
13.38	3.67885
13.39	3.6805
13.4	3.67392
13.41	3.67161
13.42	3.67786
13.43	3.68017
13.44	3.67589
13.45	3.67754
13.46	3.67523
13.47	3.67655
13.48	3.68115
13.49	3.67754
13.5	3.67721
13.51	3.67326
13.52	3.67556
13.53	3.68214
13.54	3.67819
13.55	3.68148
13.56	3.68313
13.57	3.68806
13.58	3.68247
13.59	3.67161
13.6	3.67918
13.61	3.67392
13.62	3.67194
13.63	3.68181
13.64	3.67556
13.65	3.67326
13.66	3.67918
13.67	3.67984
13.68	3.67425
13.69	3.67392
13.7	3.67622
13.71	3.67458
13.72	3.67227
13.73	3.67096
13.74	3.67392
13.75	3.6703
13.76	3.67425
13.77	3.66898
13.78	3.67359
13.79	3.67458
13.8	3.67852
13.81	3.67359
13.82	3.67425
13.83	3.67227
13.84	3.67918
13.85	3.66964
13.86	3.67161
13.87	3.66898
13.88	3.66931
13.89	3.66997
13.9	3.67194
13.91	3.67392
13.92	3.66964
13.93	3.67096
13.94	3.66734
13.95	3.66142
13.96	3.67293
13.97	3.67194
13.98	3.66701
13.99	3.66767
14	3.67096
14.01	3.66833
14.02	3.66438
14.03	3.66471
14.04	3.66997
14.05	3.66569
14.06	3.66734
14.07	3.66668
14.08	3.66701
14.09	3.66109
14.1	3.66405
14.11	3.66931
14.12	3.65582
14.13	3.6601
14.14	3.66833
14.15	3.668
14.16	3.66668
14.17	3.66306
14.18	3.6624
14.19	3.66175
14.2	3.66471
14.21	3.65582
14.22	3.65484
14.23	3.66043
14.24	3.6624
14.25	3.66273
14.26	3.66339
14.27	3.66273
14.28	3.66536
14.29	3.66207
14.3	3.65911
14.31	3.6578
14.32	3.65615
14.33	3.65911
14.34	3.65879
14.35	3.65813
14.36	3.65977
14.37	3.65944
14.38	3.6601
14.39	3.65944
14.4	3.65418
14.41	3.65681
14.42	3.65254
14.43	3.66109
14.44	3.65681
14.45	3.6555
14.46	3.66306
14.47	3.65484
14.48	3.65813
14.49	3.65188
14.5	3.65911
14.51	3.66043
14.52	3.65451
14.53	3.65352
14.54	3.65911
14.55	3.65319
14.56	3.65977
14.57	3.6555
14.58	3.65944
14.59	3.65681
14.6	3.65681
14.61	3.6555
14.62	3.66109
14.63	3.65846
14.64	3.66043
14.65	3.65451
14.66	3.65254
14.67	3.65056
14.68	3.65484
14.69	3.65582
14.7	3.65089
14.71	3.64925
14.72	3.65155
14.73	3.64859
14.74	3.65254
14.75	3.65155
14.76	3.64628
14.77	3.65319
14.78	3.65418
14.79	3.65319
14.8	3.65122
14.81	3.64793
14.82	3.64859
14.83	3.65089
14.84	3.64793
14.85	3.65319
14.86	3.64596
14.87	3.64464
14.88	3.64661
14.89	3.64694
14.9	3.64727
14.91	3.64957
14.92	3.65023
14.93	3.6476
14.94	3.64859
14.95	3.64464
14.96	3.65023
14.97	3.64793
14.98	3.65221
14.99	3.64957
15	3.64431
15.01	3.64102
15.02	3.64365
15.03	3.64102
15.04	3.64661
15.05	3.64464
15.06	3.64661
15.07	3.64628
15.08	3.63872
15.09	3.64859
15.1	3.64398
15.11	3.64201
15.12	3.65023
15.13	3.64694
15.14	3.64925
15.15	3.64398
15.16	3.643
15.17	3.64694
15.18	3.64826
15.19	3.64661
15.2	3.65056
15.21	3.65484
15.22	3.65023
15.23	3.6499
15.24	3.64859
15.25	3.65023
15.26	3.64727
15.27	3.64826
15.28	3.65319
15.29	3.64925
15.3	3.65319
15.31	3.65089
15.32	3.64727
15.33	3.64694
15.34	3.64793
15.35	3.64464
15.36	3.65188
15.37	3.64596
15.38	3.65451
15.39	3.65089
15.4	3.64596
15.41	3.65517
15.42	3.65155
15.43	3.64892
15.44	3.64892
15.45	3.64957
15.46	3.6476
15.47	3.64168
15.48	3.64596
15.49	3.65023
15.5	3.65056
15.51	3.64793
15.52	3.65254
15.53	3.65023
15.54	3.64892
15.55	3.64793
15.56	3.64859
15.57	3.64628
15.58	3.64793
15.59	3.64661
15.6	3.6476
15.61	3.65056
15.62	3.65582
15.63	3.65056
15.64	3.64398
15.65	3.64727
15.66	3.6476
15.67	3.64036
15.68	3.63971
15.69	3.64596
15.7	3.65023
15.71	3.64826
15.72	3.65023
15.73	3.64234
15.74	3.64398
15.75	3.64003
15.76	3.64365
15.77	3.643
15.78	3.64168
15.79	3.64661
15.8	3.64694
15.81	3.64628
15.82	3.64168
15.83	3.63872
15.84	3.63773
15.85	3.64859
15.86	3.64661
15.87	3.64102
15.88	3.64332
15.89	3.64497
15.9	3.64661
15.91	3.64234
15.92	3.63378
15.93	3.64365
15.94	3.63576
15.95	3.64168
15.96	3.63938
15.97	3.643
15.98	3.64102
15.99	3.64168
16	3.63707
16.01	3.64201
16.02	3.64332
16.03	3.64234
16.04	3.63642
16.05	3.63773
16.06	3.63609
16.07	3.64135
16.08	3.63477
16.09	3.63707
16.1	3.63707
16.11	3.6305
16.12	3.63247
16.13	3.63675
16.14	3.63477
16.15	3.63806
16.16	3.63543
16.17	3.63082
16.18	3.64168
16.19	3.63905
16.2	3.6328
16.21	3.63148
16.22	3.63181
16.23	3.63313
16.24	3.63477
16.25	3.63707
16.26	3.63642
16.27	3.63313
16.28	3.63707
16.29	3.63247
16.3	3.63115
16.31	3.63346
16.32	3.63609
16.33	3.63082
16.34	3.63444
16.35	3.63905
16.36	3.63938
16.37	3.63378
16.38	3.63082
16.39	3.63707
16.4	3.63642
16.41	3.62984
16.42	3.63411
16.43	3.63576
16.44	3.63609
16.45	3.63642
16.46	3.63609
16.47	3.63411
16.48	3.63082
16.49	3.63707
16.5	3.63378
16.51	3.6351
16.52	3.63477
16.53	3.62852
16.54	3.62984
16.55	3.63477
16.56	3.63444
16.57	3.63675
16.58	3.63444
16.59	3.63675
16.6	3.63148
16.61	3.63773
16.62	3.6328
16.63	3.6351
16.64	3.6351
16.65	3.63773
16.66	3.64168
16.67	3.6374
16.68	3.63576
16.69	3.62951
16.7	3.63773
16.71	3.6374
16.72	3.6374
16.73	3.63806
16.74	3.63675
16.75	3.63346
16.76	3.62852
16.77	3.64102
16.78	3.63313
16.79	3.63707
16.8	3.63181
16.81	3.63905
16.82	3.63839
16.83	3.63313
16.84	3.6351
16.85	3.63181
16.86	3.63773
16.87	3.63609
16.88	3.63707
16.89	3.63378
16.9	3.63247
16.91	3.63346
16.92	3.6328
16.93	3.62457
16.94	3.62753
16.95	3.63313
16.96	3.62918
16.97	3.63707
16.98	3.62951
16.99	3.63082
17	3.62852
17.01	3.62786
17.02	3.62721
17.03	3.62753
17.04	3.62786
17.05	3.62852
17.06	3.62688
17.07	3.62424
17.08	3.62885
17.09	3.62359
17.1	3.62392
17.11	3.62293
17.12	3.62589
17.13	3.62918
17.14	3.62457
17.15	3.62227
17.16	3.62655
17.17	3.62293
17.18	3.62918
17.19	3.62885
17.2	3.61865
17.21	3.61503
17.22	3.6203
17.23	3.6203
17.24	3.62392
17.25	3.62721
17.26	3.62589
17.27	3.62392
17.28	3.62622
17.29	3.62424
17.3	3.61898
17.31	3.61865
17.32	3.62096
17.33	3.61997
17.34	3.6124
17.35	3.61701
17.36	3.62227
17.37	3.62227
17.38	3.62622
17.39	3.61865
17.4	3.61569
17.41	3.61931
17.42	3.61734
17.43	3.61339
17.44	3.61799
17.45	3.6203
17.46	3.61832
17.47	3.61635
17.48	3.62293
17.49	3.61668
17.5	3.61964
17.51	3.62556
17.52	3.62721
17.53	3.62392
17.54	3.62227
17.55	3.62293
17.56	3.62063
17.57	3.6203
17.58	3.62424
17.59	3.62161
17.6	3.62161
17.61	3.61865
17.62	3.62556
17.63	3.62589
17.64	3.62523
17.65	3.62589
17.66	3.62227
17.67	3.62589
17.68	3.62753
17.69	3.62589
17.7	3.62293
17.71	3.62063
17.72	3.63115
17.73	3.63115
17.74	3.62951
17.75	3.63017
17.76	3.62655
17.77	3.62457
17.78	3.63115
17.79	3.63082
17.8	3.63148
17.81	3.63214
17.82	3.62688
17.83	3.62918
17.84	3.62688
17.85	3.62688
17.86	3.62852
17.87	3.62852
17.88	3.61931
17.89	3.61964
17.9	3.61898
17.91	3.62161
17.92	3.61931
17.93	3.61339
17.94	3.61997
17.95	3.61471
17.96	3.6203
17.97	3.61602
17.98	3.61865
17.99	3.61898
18	3.61438
18.01	3.62063
18.02	3.62161
18.03	3.6226
18.04	3.61043
18.05	3.61076
18.06	3.61701
18.07	3.6203
18.08	3.61471
18.09	3.6124
18.1	3.61438
18.11	3.61799
18.12	3.61799
18.13	3.61602
18.14	3.61832
18.15	3.61569
18.16	3.62128
18.17	3.62753
18.18	3.62556
18.19	3.61898
18.2	3.61931
18.21	3.6124
18.22	3.61569
18.23	3.62096
18.24	3.6203
18.25	3.61767
18.26	3.61569
18.27	3.61832
18.28	3.6203
18.29	3.6226
18.3	3.62359
18.31	3.62096
18.32	3.61997
18.33	3.61536
18.34	3.61898
18.35	3.61635
18.36	3.61931
18.37	3.61602
18.38	3.61471
18.39	3.61799
18.4	3.61668
18.41	3.61767
18.42	3.61438
18.43	3.61076
18.44	3.61207
18.45	3.61635
18.46	3.61799
18.47	3.61569
18.48	3.61438
18.49	3.61372
18.5	3.61405
18.51	3.61174
18.52	3.6124
18.53	3.61306
18.54	3.61503
18.55	3.60714
18.56	3.60188
18.57	3.60188
18.58	3.6078
18.59	3.61076
18.6	3.61043
18.61	3.61701
18.62	3.61339
18.63	3.6022
18.64	3.60944
18.65	3.60648
18.66	3.60253
18.67	3.61109
18.68	3.60911
18.69	3.60813
18.7	3.60878
18.71	3.61174
18.72	3.61471
18.73	3.60878
18.74	3.61174
18.75	3.61536
18.76	3.61438
18.77	3.60845
18.78	3.60155
18.79	3.61109
18.8	3.60911
18.81	3.60023
18.82	3.60944
18.83	3.61273
18.84	3.60681
18.85	3.61043
18.86	3.61832
18.87	3.61142
18.88	3.60747
18.89	3.60911
18.9	3.61832
18.91	3.61734
18.92	3.61405
18.93	3.60878
18.94	3.60747
18.95	3.61372
18.96	3.61438
18.97	3.61109
18.98	3.61339
18.99	3.61536
19	3.61569
19.01	3.61602
19.02	3.61405
19.03	3.60977
19.04	3.60845
19.05	3.61207
19.06	3.61109
19.07	3.61043
19.08	3.61207
19.09	3.60648
19.1	3.60977
19.11	3.61174
19.12	3.60615
19.13	3.60845
19.14	3.60681
19.15	3.60878
19.16	3.61109
19.17	3.61174
19.18	3.61569
19.19	3.60878
19.2	3.60714
19.21	3.60845
19.22	3.61174
19.23	3.61471
19.24	3.60977
19.25	3.61273
19.26	3.61372
19.27	3.60944
19.28	3.6101
19.29	3.61076
19.3	3.60944
19.31	3.60418
19.32	3.61438
19.33	3.60977
19.34	3.61207
19.35	3.60418
19.36	3.60878
19.37	3.60845
19.38	3.61109
19.39	3.61306
19.4	3.60813
19.41	3.60253
19.42	3.60648
19.43	3.61339
19.44	3.60911
19.45	3.60845
19.46	3.6101
19.47	3.60517
19.48	3.60615
19.49	3.60648
19.5	3.60319
19.51	3.60681
19.52	3.61306
19.53	3.60648
19.54	3.61174
19.55	3.59957
19.56	3.60845
19.57	3.61043
19.58	3.60418
19.59	3.60714
19.6	3.61142
19.61	3.60911
19.62	3.59957
19.63	3.60155
19.64	3.59892
19.65	3.60517
19.66	3.60549
19.67	3.60845
19.68	3.61438
19.69	3.60714
19.7	3.6078
19.71	3.60845
19.72	3.6022
19.73	3.6101
19.74	3.60517
19.75	3.60714
19.76	3.60813
19.77	3.60911
19.78	3.60253
19.79	3.60385
19.8	3.60023
19.81	3.60056
19.82	3.60385
19.83	3.60451
19.84	3.61405
19.85	3.6124
19.86	3.60352
19.87	3.60517
19.88	3.60747
19.89	3.60681
19.9	3.61471
19.91	3.61109
19.92	3.60845
19.93	3.6101
19.94	3.60878
19.95	3.60352
19.96	3.60813
19.97	3.60056
19.98	3.60845
19.99	3.6078
20	3.61043
20.01	3.60714
20.02	3.60582
20.03	3.60911
20.04	3.60385
20.05	3.60582
20.06	3.61503
20.07	3.6078
20.08	3.60813
20.09	3.60517
20.1	3.61207
20.11	3.60418
20.12	3.60714
20.13	3.61471
20.14	3.60648
20.15	3.60517
20.16	3.60615
20.17	3.60418
20.18	3.59727
20.19	3.60352
20.2	3.60747
20.21	3.6124
20.22	3.60681
20.23	3.59957
20.24	3.6022
20.25	3.60517
20.26	3.60944
20.27	3.60517
20.28	3.60813
20.29	3.60155
20.3	3.60056
20.31	3.60747
20.32	3.60418
20.33	3.59859
20.34	3.60286
20.35	3.60385
20.36	3.60122
20.37	3.59859
20.38	3.59859
20.39	3.59859
20.4	3.60451
20.41	3.60582
20.42	3.60122
20.43	3.60122
20.44	3.60517
20.45	3.59826
20.46	3.60122
20.47	3.59859
20.48	3.60385
20.49	3.60549
20.5	3.60155
20.51	3.5976
20.52	3.60155
20.53	3.59957
20.54	3.60582
20.55	3.60188
20.56	3.60023
20.57	3.60582
20.58	3.60549
20.59	3.60418
20.6	3.60023
20.61	3.59924
20.62	3.60089
20.63	3.59859
20.64	3.60352
20.65	3.59793
20.66	3.60155
20.67	3.59957
20.68	3.60385
20.69	3.60385
20.7	3.59924
20.71	3.60878
20.72	3.60549
20.73	3.60286
20.74	3.60549
20.75	3.60352
20.76	3.6022
20.77	3.60188
20.78	3.61207
20.79	3.60714
20.8	3.60648
20.81	3.60747
20.82	3.60813
20.83	3.60615
20.84	3.60385
20.85	3.60582
20.86	3.60845
20.87	3.59892
20.88	3.59924
20.89	3.60549
20.9	3.60418
20.91	3.60517
20.92	3.60385
20.93	3.60319
20.94	3.60319
20.95	3.61076
20.96	3.60418
20.97	3.60451
20.98	3.60582
20.99	3.60023
21	3.60582
21.01	3.60418
21.02	3.59924
21.03	3.60451
21.04	3.59859
21.05	3.60122
21.06	3.59826
21.07	3.60648
21.08	3.60056
21.09	3.60286
21.1	3.59924
21.11	3.59727
21.12	3.60188
21.13	3.60484
21.14	3.60188
21.15	3.60089
21.16	3.60648
21.17	3.60549
21.18	3.60122
21.19	3.59595
21.2	3.59563
21.21	3.5976
21.22	3.59563
21.23	3.60188
21.24	3.60582
21.25	3.60418
21.26	3.59464
21.27	3.59563
21.28	3.60385
21.29	3.60023
21.3	3.60286
21.31	3.60056
21.32	3.60615
21.33	3.60023
21.34	3.60056
21.35	3.5976
21.36	3.60418
21.37	3.60122
21.38	3.60681
21.39	3.60188
21.4	3.59628
21.41	3.59431
21.42	3.60451
21.43	3.59924
21.44	3.59497
21.45	3.59957
21.46	3.60714
21.47	3.5999
21.48	3.5976
21.49	3.59957
21.5	3.59694
21.51	3.59168
21.52	3.59003
21.53	3.59332
21.54	3.5953
21.55	3.59102
21.56	3.59135
21.57	3.59628
21.58	3.59102
21.59	3.59563
21.6	3.59201
21.61	3.5953
21.62	3.59201
21.63	3.59332
21.64	3.59168
21.65	3.59957
21.66	3.59497
21.67	3.59398
21.68	3.5874
21.69	3.59168
21.7	3.59957
21.71	3.60188
21.72	3.59431
21.73	3.59628
21.74	3.59628
21.75	3.60089
21.76	3.5953
21.77	3.59727
21.78	3.59661
21.79	3.59135
21.8	3.59201
21.81	3.59464
21.82	3.59595
21.83	3.59563
21.84	3.59036
21.85	3.59727
21.86	3.59826
21.87	3.59727
21.88	3.59332
21.89	3.60319
21.9	3.5999
21.91	3.5953
21.92	3.59859
21.93	3.59826
21.94	3.60582
21.95	3.60286
21.96	3.60023
21.97	3.59661
21.98	3.60056
21.99	3.60319
22	3.60714
22.01	3.60023
22.02	3.60056
22.03	3.59694
22.04	3.59727
22.05	3.59694
22.06	3.59694
22.07	3.59464
22.08	3.60319
22.09	3.59793
22.1	3.60155
22.11	3.60286
22.12	3.59924
22.13	3.59595
22.14	3.59826
22.15	3.59266
22.16	3.60056
22.17	3.60089
22.18	3.59497
22.19	3.59497
22.2	3.59628
22.21	3.58839
22.22	3.59299
22.23	3.60056
22.24	3.59398
22.25	3.59102
22.26	3.58576
22.27	3.59727
22.28	3.59793
22.29	3.59003
22.3	3.59266
22.31	3.59069
22.32	3.59003
22.33	3.5953
22.34	3.59069
22.35	3.58872
22.36	3.58674
22.37	3.58345
22.38	3.5828
22.39	3.58872
22.4	3.58674
22.41	3.58773
22.42	3.58905
22.43	3.58872
22.44	3.5851
22.45	3.58378
22.46	3.58543
22.47	3.58806
22.48	3.59234
22.49	3.58872
22.5	3.59201
22.51	3.58938
22.52	3.59694
22.53	3.5851
22.54	3.58082
22.55	3.57918
22.56	3.58707
22.57	3.58345
22.58	3.58214
22.59	3.58411
22.6	3.59069
22.61	3.58707
22.62	3.58938
22.63	3.58313
22.64	3.58214
22.65	3.58115
22.66	3.57951
22.67	3.57885
22.68	3.59332
22.69	3.58576
22.7	3.58806
22.71	3.58839
22.72	3.59234
22.73	3.59102
22.74	3.58872
22.75	3.59003
22.76	3.59563
22.77	3.59036
22.78	3.59299
22.79	3.59266
22.8	3.58938
22.81	3.59003
22.82	3.58543
22.83	3.58247
22.84	3.5953
22.85	3.5874
22.86	3.58938
22.87	3.59201
22.88	3.58839
22.89	3.58938
22.9	3.58707
22.91	3.59201
22.92	3.58674
22.93	3.58872
22.94	3.58674
22.95	3.58806
22.96	3.59398
22.97	3.58576
22.98	3.59036
22.99	3.59859
23	3.59102
23.01	3.59135
23.02	3.59003
23.03	3.58773
23.04	3.59135
23.05	3.59234
23.06	3.58806
23.07	3.58247
23.08	3.58938
23.09	3.59859
23.1	3.59201
23.11	3.58839
23.12	3.58938
23.13	3.58872
23.14	3.59628
23.15	3.58938
23.16	3.59299
23.17	3.58674
23.18	3.5851
23.19	3.58806
23.2	3.58872
23.21	3.59497
23.22	3.58872
23.23	3.59168
23.24	3.58872
23.25	3.58905
23.26	3.59036
23.27	3.59003
23.28	3.58806
23.29	3.58938
23.3	3.59168
23.31	3.59464
23.32	3.59398
23.33	3.5874
23.34	3.5874
23.35	3.59069
23.36	3.58872
23.37	3.5851
23.38	3.58214
23.39	3.58773
23.4	3.58674
23.41	3.58839
23.42	3.59365
23.43	3.58905
23.44	3.59003
23.45	3.58641
23.46	3.58444
23.47	3.58773
23.48	3.5874
23.49	3.58378
23.5	3.58378
23.51	3.5874
23.52	3.58905
23.53	3.5897
23.54	3.58411
23.55	3.58773
23.56	3.59003
23.57	3.58641
23.58	3.58938
23.59	3.58905
23.6	3.58543
23.61	3.58674
23.62	3.58181
23.63	3.59069
23.64	3.58247
23.65	3.58543
23.66	3.58016
23.67	3.58181
23.68	3.5874
23.69	3.5851
23.7	3.58444
23.71	3.58378
23.72	3.58313
23.73	3.5851
23.74	3.5851
23.75	3.58345
23.76	3.58082
23.77	3.58378
23.78	3.5851
23.79	3.5897
23.8	3.5851
23.81	3.58115
23.82	3.58148
23.83	3.58641
23.84	3.58115
23.85	3.57753
23.86	3.58082
23.87	3.58247
23.88	3.58378
23.89	3.58378
23.9	3.5874
23.91	3.58444
23.92	3.58444
23.93	3.57852
23.94	3.57885
23.95	3.58247
23.96	3.58181
23.97	3.58214
23.98	3.5851
23.99	3.58181
24	3.5828
24.01	3.57786
24.02	3.57984
24.03	3.58016
24.04	3.57424
24.05	3.58016
24.06	3.58345
24.07	3.58082
24.08	3.57885
24.09	3.57819
24.1	3.58214
24.11	3.58378
24.12	3.56898
24.13	3.57424
24.14	3.5828
24.15	3.58411
24.16	3.58115
24.17	3.57819
24.18	3.58148
24.19	3.58641
24.2	3.58247
24.21	3.5828
24.22	3.5828
24.23	3.58247
24.24	3.58016
24.25	3.58411
24.26	3.58477
24.27	3.58411
24.28	3.59036
24.29	3.58378
24.3	3.57951
24.31	3.58576
24.32	3.5851
24.33	3.58345
24.34	3.58411
24.35	3.59135
24.36	3.57786
24.37	3.5772
24.38	3.5828
24.39	3.58576
24.4	3.58839
24.41	3.58444
24.42	3.58345
24.43	3.57852
24.44	3.58345
24.45	3.57885
24.46	3.57885
24.47	3.58378
24.48	3.58247
24.49	3.5772
24.5	3.57391
24.51	3.57984
24.52	3.57852
24.53	3.58609
24.54	3.58214
24.55	3.57589
24.56	3.57885
24.57	3.58082
24.58	3.58016
24.59	3.58872
24.6	3.58181
24.61	3.57918
24.62	3.57984
24.63	3.58082
24.64	3.58247
24.65	3.58082
24.66	3.57984
24.67	3.58016
24.68	3.57819
24.69	3.57885
24.7	3.58049
24.71	3.58411
24.72	3.58378
24.73	3.57885
24.74	3.58115
24.75	3.58148
24.76	3.5828
24.77	3.58707
24.78	3.58543
24.79	3.58148
24.8	3.57885
24.81	3.58247
24.82	3.58148
24.83	3.58247
24.84	3.58214
24.85	3.5851
24.86	3.5851
24.87	3.57852
24.88	3.57951
24.89	3.58016
24.9	3.57951
24.91	3.58444
24.92	3.57753
24.93	3.57687
24.94	3.57753
24.95	3.57918
24.96	3.58477
24.97	3.57655
24.98	3.58214
24.99	3.5772
25	3.57819
25.01	3.58543
25.02	3.57852
25.03	3.58082
25.04	3.58378
25.05	3.57589
25.06	3.57852
25.07	3.57622
25.08	3.57622
25.09	3.57457
25.1	3.5726
25.11	3.57359
25.12	3.57523
25.13	3.57819
25.14	3.57753
25.15	3.57655
25.16	3.57589
25.17	3.58016
25.18	3.57819
25.19	3.57359
25.2	3.57622
25.21	3.57391
25.22	3.57128
25.23	3.57556
25.24	3.58016
25.25	3.57655
25.26	3.57687
25.27	3.57457
25.28	3.57622
25.29	3.57819
25.3	3.57918
25.31	3.58148
25.32	3.57918
25.33	3.57753
25.34	3.58378
25.35	3.57589
25.36	3.57687
25.37	3.58214
25.38	3.5828
25.39	3.57293
25.4	3.5749
25.41	3.57786
25.42	3.57819
25.43	3.57523
25.44	3.57786
25.45	3.57227
25.46	3.57819
25.47	3.57885
25.48	3.57753
25.49	3.57951
25.5	3.57556
25.51	3.5749
25.52	3.5772
25.53	3.57753
25.54	3.57457
25.55	3.57359
25.56	3.57589
25.57	3.57918
25.58	3.5772
25.59	3.58444
25.6	3.57852
25.61	3.57786
25.62	3.57753
25.63	3.58313
25.64	3.57984
25.65	3.57227
25.66	3.58049
25.67	3.58181
25.68	3.57161
25.69	3.57359
25.7	3.57556
25.71	3.57918
25.72	3.57128
25.73	3.58247
25.74	3.5772
25.75	3.57161
25.76	3.57753
25.77	3.56865
25.78	3.57095
25.79	3.57359
25.8	3.58082
25.81	3.58049
25.82	3.58082
25.83	3.57786
25.84	3.56898
25.85	3.57095
25.86	3.57359
25.87	3.57819
25.88	3.57786
25.89	3.56799
25.9	3.56898
25.91	3.56799
25.92	3.56635
25.93	3.57589
25.94	3.57951
25.95	3.5749
25.96	3.56602
25.97	3.56997
25.98	3.57655
25.99	3.57062
26	3.5703
26.01	3.56799
26.02	3.57293
26.03	3.56635
26.04	3.57359
26.05	3.57622
26.06	3.5703
26.07	3.57227
26.08	3.57194
26.09	3.56701
26.1	3.56569
26.11	3.56635
26.12	3.56898
26.13	3.56865
26.14	3.5749
26.15	3.5726
26.16	3.57161
26.17	3.57095
26.18	3.57391
26.19	3.57589
26.2	3.56898
26.21	3.56799
26.22	3.57095
26.23	3.57062
26.24	3.57687
26.25	3.5726
26.26	3.56832
26.27	3.57095
26.28	3.57326
26.29	3.57293
26.3	3.57359
26.31	3.57753
26.32	3.56635
26.33	3.57227
26.34	3.5749
26.35	3.5703
26.36	3.56898
26.37	3.56635
26.38	3.5703
26.39	3.57095
26.4	3.57391
26.41	3.56602
26.42	3.5703
26.43	3.5772
26.44	3.57622
26.45	3.5726
26.46	3.57161
26.47	3.57161
26.48	3.57589
26.49	3.57161
26.5	3.56931
26.51	3.56865
26.52	3.5749
26.53	3.56536
26.54	3.57786
26.55	3.57951
26.56	3.57424
26.57	3.57095
26.58	3.56766
26.59	3.57227
26.6	3.56964
26.61	3.57424
26.62	3.57293
26.63	3.57391
26.64	3.57095
26.65	3.5726
26.66	3.56766
26.67	3.57095
26.68	3.56997
26.69	3.57062
26.7	3.56766
26.71	3.56569
26.72	3.56405
26.73	3.56569
26.74	3.57095
26.75	3.56174
26.76	3.56437
26.77	3.56865
26.78	3.57161
26.79	3.57655
26.8	3.57622
26.81	3.57095
26.82	3.57391
26.83	3.56865
26.84	3.57359
26.85	3.57227
26.86	3.5726
26.87	3.56898
26.88	3.57227
26.89	3.57655
26.9	3.57326
26.91	3.57622
26.92	3.57622
26.93	3.57062
26.94	3.57095
26.95	3.5726
26.96	3.57424
26.97	3.57523
26.98	3.57523
26.99	3.57951
27	3.57391
27.01	3.5749
27.02	3.56635
27.03	3.56734
27.04	3.56734
27.05	3.56635
27.06	3.56701
27.07	3.57359
27.08	3.57062
27.09	3.56766
27.1	3.5749
27.11	3.57523
27.12	3.56306
27.13	3.56668
27.14	3.56898
27.15	3.5703
27.16	3.56668
27.17	3.56437
27.18	3.56734
27.19	3.57095
27.2	3.57293
27.21	3.56832
27.22	3.57589
27.23	3.5726
27.24	3.56437
27.25	3.56964
27.26	3.56997
27.27	3.57128
27.28	3.57523
27.29	3.56799
27.3	3.56701
27.31	3.57326
27.32	3.5749
27.33	3.56799
27.34	3.5578
27.35	3.56437
27.36	3.56437
27.37	3.56997
27.38	3.56898
27.39	3.56766
27.4	3.56734
27.41	3.56799
27.42	3.56701
27.43	3.56931
27.44	3.56635
27.45	3.57194
27.46	3.55944
27.47	3.5647
27.48	3.56799
27.49	3.57293
27.5	3.56766
27.51	3.57161
27.52	3.56931
27.53	3.5703
27.54	3.56832
27.55	3.5647
27.56	3.57161
27.57	3.56668
27.58	3.57062
27.59	3.57062
27.6	3.57326
27.61	3.56734
27.62	3.55977
27.63	3.56602
27.64	3.57194
27.65	3.56701
27.66	3.56536
27.67	3.5578
27.68	3.56635
27.69	3.56503
27.7	3.56108
27.71	3.56964
27.72	3.56602
27.73	3.56734
27.74	3.5726
27.75	3.56766
27.76	3.57095
27.77	3.5703
27.78	3.56799
27.79	3.5647
27.8	3.56734
27.81	3.5647
27.82	3.5578
27.83	3.56273
27.84	3.56799
27.85	3.57227
27.86	3.56635
27.87	3.56602
27.88	3.56536
27.89	3.56273
27.9	3.56635
27.91	3.56701
27.92	3.56799
27.93	3.56536
27.94	3.56174
27.95	3.55977
27.96	3.56339
27.97	3.56602
27.98	3.56306
27.99	3.5647
28	3.56437
28.01	3.5624
28.02	3.56503
28.03	3.56372
28.04	3.56668
28.05	3.56503
28.06	3.56536
28.07	3.56997
28.08	3.56602
28.09	3.55812
28.1	3.56931
28.11	3.56405
28.12	3.56569
28.13	3.5624
28.14	3.5601
28.15	3.55845
28.16	3.56799
28.17	3.55944
28.18	3.56141
28.19	3.56207
28.2	3.56832
28.21	3.57095
28.22	3.56931
28.23	3.56207
28.24	3.56405
28.25	3.55944
28.26	3.56503
28.27	3.56766
28.28	3.56174
28.29	3.56536
28.3	3.56799
28.31	3.56931
28.32	3.5647
28.33	3.56503
28.34	3.56043
28.35	3.56076
28.36	3.56437
28.37	3.56865
28.38	3.57062
28.39	3.56898
28.4	3.56865
28.41	3.56339
28.42	3.5703
28.43	3.56536
28.44	3.56668
28.45	3.56306
28.46	3.55714
28.47	3.55845
28.48	3.56569
28.49	3.56536
28.5	3.56141
28.51	3.56635
28.52	3.56273
28.53	3.56734
28.54	3.56372
28.55	3.56306
28.56	3.5624
28.57	3.56207
28.58	3.56503
28.59	3.56569
28.6	3.56108
28.61	3.56569
28.62	3.55418
28.63	3.55878
28.64	3.55911
28.65	3.56766
28.66	3.56766
28.67	3.56931
28.68	3.56372
28.69	3.5624
28.7	3.56931
28.71	3.56766
28.72	3.56766
28.73	3.56108
28.74	3.56701
28.75	3.55977
28.76	3.56207
28.77	3.56372
28.78	3.5703
28.79	3.56898
28.8	3.56997
28.81	3.56635
28.82	3.56602
28.83	3.56437
28.84	3.56306
28.85	3.56799
28.86	3.56503
28.87	3.57095
28.88	3.56174
28.89	3.56766
28.9	3.56043
28.91	3.55944
28.92	3.56569
28.93	3.55714
28.94	3.56437
28.95	3.56536
28.96	3.5624
28.97	3.56536
28.98	3.55878
28.99	3.56043
29	3.55615
29.01	3.56372
29.02	3.56174
29.03	3.55714
29.04	3.56174
29.05	3.56734
29.06	3.56799
29.07	3.56569
29.08	3.56207
29.09	3.56076
29.1	3.56141
29.11	3.56569
29.12	3.56076
29.13	3.56339
29.14	3.5647
29.15	3.56141
29.16	3.56372
29.17	3.55681
29.18	3.55615
29.19	3.5647
29.2	3.56141
29.21	3.56207
29.22	3.56141
29.23	3.5624
29.24	3.5624
29.25	3.56799
29.26	3.56043
29.27	3.55911
29.28	3.56865
29.29	3.56405
29.3	3.55944
29.31	3.56174
29.32	3.56108
29.33	3.56043
29.34	3.55944
29.35	3.55516
29.36	3.56141
29.37	3.56207
29.38	3.55944
29.39	3.56273
29.4	3.56898
29.41	3.56043
29.42	3.56207
29.43	3.55714
29.44	3.55582
29.45	3.56174
29.46	3.56174
29.47	3.55944
29.48	3.55615
29.49	3.55878
29.5	3.56141
29.51	3.5601
29.52	3.56668
29.53	3.56141
29.54	3.55648
29.55	3.56569
29.56	3.56437
29.57	3.56043
29.58	3.56602
29.59	3.56766
29.6	3.55845
29.61	3.56076
29.62	3.5601
29.63	3.55681
29.64	3.55714
29.65	3.55812
29.66	3.55747
29.67	3.55845
29.68	3.56273
29.69	3.56734
29.7	3.56273
29.71	3.56108
29.72	3.55516
29.73	3.55089
29.74	3.55714
29.75	3.56043
29.76	3.56503
29.77	3.55878
29.78	3.55747
29.79	3.55681
29.8	3.56372
29.81	3.55812
29.82	3.55944
29.83	3.56108
29.84	3.55977
29.85	3.56503
29.86	3.56372
29.87	3.56437
29.88	3.56174
29.89	3.5578
29.9	3.56536
29.91	3.55582
29.92	3.56503
29.93	3.55911
29.94	3.56569
29.95	3.55582
29.96	3.55385
29.97	3.55385
29.98	3.55418
29.99	3.56207
30	3.56536
