"BIO-KINE ASCII FILE"
"_COMMENT"	"MOS-500 Spectrometer"
"_COMMENT"	"Kinetics measurement"
"_COMMENT"	"Y Unit : Volt,  X Unit : s"
"_COMMENT"	"Excitation wavelength : 380 nm"
"_COMMENT"	"Fentes bandwidth =  1 nm"
"_COMMENT"	"HV= 625V"
"_COMMENT"	"Timebase  1 =  .01 s   3001 pts"
"_SFM"	"SFM-400 /S  Advanced mode"
"_SFM"	"Ratio : S1: 2.5, S2: 0, S3: 0, S4: 1"
"_SFM"	"Content : S1: , S2: , S3: , S4:"
"_SFM"	"Concentration : S1: , S2: , S3: , S4:"
"_SFM"	"Total volume : 209 µl  Flow : 3.5 mL/s"
"_SFM"	"Acquisition start :  10 ms before stop"
"_SFM"	"cuve=FC-15, s1=10 ml , s2=10 ml , s3=10 ml , s4=1.9 ml"
"_UNITX"	"s"
"_UNITY"	"Volt"
"_DELTAX"	0
"_DATA"
1e-300	5.24173
0.01	5.76477
0.02	5.94471
0.03	5.95359
0.04	5.97761
0.05	5.99142
0.06	5.99636
0.07	6.00787
0.08	6.0105
0.09	6.00359
0.1	6.00491
0.11	6.01149
0.12	6.01313
0.13	6.01971
0.14	6.01346
0.15	6.0082
0.16	6.00754
0.17	6.01083
0.18	6.00721
0.19	6.00162
0.2	5.99405
0.21	5.99175
0.22	5.98484
0.23	5.99109
0.24	5.99307
0.25	5.99011
0.26	5.97925
0.27	5.98024
0.28	5.97728
0.29	5.97037
0.3	5.97399
0.31	5.96412
0.32	5.96741
0.33	5.96346
0.34	5.9605
0.35	5.95195
0.36	5.9503
0.37	5.95458
0.38	5.94932
0.39	5.93451
0.4	5.93747
0.41	5.9332
0.42	5.93484
0.43	5.92366
0.44	5.92464
0.45	5.92267
0.46	5.92267
0.47	5.9128
0.48	5.89997
0.49	5.90622
0.5	5.89997
0.51	5.89964
0.52	5.89175
0.53	5.89175
0.54	5.88287
0.55	5.88616
0.56	5.87892
0.57	5.86774
0.58	5.86214
0.59	5.86379
0.6	5.86477
0.61	5.85491
0.62	5.84273
0.63	5.84668
0.64	5.848
0.65	5.84438
0.66	5.84668
0.67	5.84405
0.68	5.82727
0.69	5.82267
0.7	5.82629
0.71	5.8276
0.72	5.82234
0.73	5.80458
0.74	5.80227
0.75	5.80885
0.76	5.80161
0.77	5.79767
0.78	5.79109
0.79	5.78582
0.8	5.77826
0.81	5.77431
0.82	5.76938
0.83	5.77267
0.84	5.7651
0.85	5.76806
0.86	5.75457
0.87	5.7526
0.88	5.74898
0.89	5.74306
0.9	5.73023
0.91	5.73484
0.92	5.72924
0.93	5.72464
0.94	5.71313
0.95	5.71411
0.96	5.70885
0.97	5.70655
0.98	5.71345
0.99	5.69799
1	5.69109
1.01	5.69273
1.02	5.69043
1.03	5.67694
1.04	5.67266
1.05	5.66674
1.06	5.66674
1.07	5.6549
1.08	5.6526
1.09	5.65128
1.1	5.65062
1.11	5.6424
1.12	5.64372
1.13	5.63418
1.14	5.6322
1.15	5.62562
1.16	5.62957
1.17	5.61806
1.18	5.61181
1.19	5.61181
1.2	5.60194
1.21	5.59832
1.22	5.58977
1.23	5.58845
1.24	5.5845
1.25	5.5845
1.26	5.57792
1.27	5.572
1.28	5.55819
1.29	5.55983
1.3	5.56016
1.31	5.55259
1.32	5.54799
1.33	5.5447
1.34	5.5447
1.35	5.53253
1.36	5.5299
1.37	5.53023
1.38	5.52167
1.39	5.51213
1.4	5.51147
1.41	5.50226
1.42	5.50259
1.43	5.50358
1.44	5.50226
1.45	5.49601
1.46	5.49141
1.47	5.48417
1.48	5.47299
1.49	5.47364
1.5	5.47595
1.51	5.4697
1.52	5.45654
1.53	5.46114
1.54	5.45588
1.55	5.44864
1.56	5.44963
1.57	5.44601
1.58	5.44305
1.59	5.43022
1.6	5.42463
1.61	5.42331
1.62	5.41608
1.63	5.4118
1.64	5.39996
1.65	5.39469
1.66	5.39075
1.67	5.38647
1.68	5.38614
1.69	5.38187
1.7	5.36344
1.71	5.3595
1.72	5.35456
1.73	5.3516
1.74	5.34831
1.75	5.34305
1.76	5.33779
1.77	5.3391
1.78	5.33548
1.79	5.3289
1.8	5.32298
1.81	5.31772
1.82	5.3141
1.83	5.30785
1.84	5.30226
1.85	5.29798
1.86	5.29436
1.87	5.29042
1.88	5.28548
1.89	5.28186
1.9	5.27232
1.91	5.27166
1.92	5.26541
1.93	5.25916
1.94	5.25259
1.95	5.24864
1.96	5.2539
1.97	5.24601
1.98	5.24206
1.99	5.23482
2	5.22627
2.01	5.22561
2.02	5.21903
2.03	5.2141
2.04	5.21607
2.05	5.20587
2.06	5.19962
2.07	5.19337
2.08	5.18811
2.09	5.18383
2.1	5.17989
2.11	5.17035
2.12	5.171
2.13	5.17429
2.14	5.16442
2.15	5.14798
2.16	5.15686
2.17	5.14995
2.18	5.14173
2.19	5.14699
2.2	5.14074
2.21	5.1289
2.22	5.12363
2.23	5.12199
2.24	5.11475
2.25	5.10423
2.26	5.09995
2.27	5.10423
2.28	5.09469
2.29	5.08482
2.3	5.08876
2.31	5.08778
2.32	5.07922
2.33	5.07034
2.34	5.07988
2.35	5.06672
2.36	5.06409
2.37	5.04995
2.38	5.0539
2.39	5.04205
2.4	5.03745
2.41	5.04008
2.42	5.04008
2.43	5.03284
2.44	5.03251
2.45	5.02396
2.46	5.01968
2.47	5.01278
2.48	5.01047
2.49	5.00587
2.5	4.99567
2.51	4.99041
2.52	4.98547
2.53	4.97889
2.54	4.97396
2.55	4.97297
2.56	4.96573
2.57	4.96573
2.58	4.96179
2.59	4.96343
2.6	4.95455
2.61	4.94402
2.62	4.94698
2.63	4.93975
2.64	4.93415
2.65	4.92659
2.66	4.92823
2.67	4.91968
2.68	4.91705
2.69	4.90323
2.7	4.90619
2.71	4.89698
2.72	4.90685
2.73	4.89336
2.74	4.88711
2.75	4.87889
2.76	4.87593
2.77	4.88086
2.78	4.86935
2.79	4.87165
2.8	4.86935
2.81	4.8654
2.82	4.84764
2.83	4.85257
2.84	4.85356
2.85	4.84435
2.86	4.8427
2.87	4.83678
2.88	4.82856
2.89	4.82198
2.9	4.81705
2.91	4.81277
2.92	4.81606
2.93	4.80783
2.94	4.80783
2.95	4.79862
2.96	4.79862
2.97	4.79073
2.98	4.78053
2.99	4.77297
3	4.7654
3.01	4.77264
3.02	4.75981
3.03	4.75421
3.04	4.76869
3.05	4.74994
3.06	4.75125
3.07	4.74435
3.08	4.73875
3.09	4.72856
3.1	4.72461
3.11	4.72494
3.12	4.71375
3.13	4.72066
3.14	4.71178
3.15	4.70981
3.16	4.69599
3.17	4.69862
3.18	4.70125
3.19	4.69336
3.2	4.68316
3.21	4.68053
3.22	4.67987
3.23	4.67527
3.24	4.6779
3.25	4.66573
3.26	4.66474
3.27	4.65619
3.28	4.65619
3.29	4.6529
3.3	4.65257
3.31	4.64796
3.32	4.64237
3.33	4.63447
3.34	4.62987
3.35	4.62395
3.36	4.6279
3.37	4.62132
3.38	4.61638
3.39	4.60684
3.4	4.59796
3.41	4.60421
3.42	4.59993
3.43	4.59664
3.44	4.58908
3.45	4.58151
3.46	4.58414
3.47	4.57691
3.48	4.56638
3.49	4.5598
3.5	4.56112
3.51	4.55816
3.52	4.55158
3.53	4.55355
3.54	4.55388
3.55	4.54927
3.56	4.54105
3.57	4.53414
3.58	4.53085
3.59	4.53316
3.6	4.52756
3.61	4.52394
3.62	4.5144
3.63	4.51079
3.64	4.51177
3.65	4.51112
3.66	4.50651
3.67	4.50059
3.68	4.49204
3.69	4.49105
3.7	4.48908
3.71	4.48611
3.72	4.47592
3.73	4.47526
3.74	4.48151
3.75	4.47164
3.76	4.46144
3.77	4.46013
3.78	4.45355
3.79	4.45223
3.8	4.44927
3.81	4.44664
3.82	4.44763
3.83	4.43874
3.84	4.4394
3.85	4.43776
3.86	4.42493
3.87	4.41901
3.88	4.42032
3.89	4.40453
3.9	4.41045
3.91	4.41045
3.92	4.40651
3.93	4.40223
3.94	4.39795
3.95	4.39828
3.96	4.39006
3.97	4.37953
3.98	4.37394
3.99	4.37526
4	4.37131
4.01	4.36835
4.02	4.36473
4.03	4.36308
4.04	4.36276
4.05	4.35025
4.06	4.34039
4.07	4.33611
4.08	4.34335
4.09	4.33644
4.1	4.33578
4.11	4.32789
4.12	4.32624
4.13	4.32262
4.14	4.32098
4.15	4.31835
4.16	4.3167
4.17	4.31045
4.18	4.30387
4.19	4.29861
4.2	4.29894
4.21	4.2917
4.22	4.29071
4.23	4.29203
4.24	4.28644
4.25	4.28512
4.26	4.28709
4.27	4.27756
4.28	4.2769
4.29	4.269
4.3	4.26834
4.31	4.2667
4.32	4.26867
4.33	4.26177
4.34	4.24926
4.35	4.25255
4.36	4.24762
4.37	4.23413
4.38	4.23676
4.39	4.23545
4.4	4.23183
4.41	4.23545
4.42	4.22821
4.43	4.22295
4.44	4.21538
4.45	4.21209
4.46	4.20683
4.47	4.20518
4.48	4.20913
4.49	4.20551
4.5	4.20058
4.51	4.19597
4.52	4.19005
4.53	4.18117
4.54	4.18413
4.55	4.17887
4.56	4.169
4.57	4.1736
4.58	4.16933
4.59	4.1713
4.6	4.16275
4.61	4.16768
4.62	4.16472
4.63	4.15683
4.64	4.15354
4.65	4.15551
4.66	4.13972
4.67	4.13972
4.68	4.13676
4.69	4.13446
4.7	4.1315
4.71	4.12821
4.72	4.12295
4.73	4.12689
4.74	4.1236
4.75	4.12031
4.76	4.10518
4.77	4.10123
4.78	4.10288
4.79	4.11012
4.8	4.10354
4.81	4.1009
4.82	4.10189
4.83	4.09729
4.84	4.09465
4.85	4.0861
4.86	4.08544
4.87	4.08117
4.88	4.07393
4.89	4.08018
4.9	4.0759
4.91	4.0736
4.92	4.07031
4.93	4.06439
4.94	4.06702
4.95	4.0565
4.96	4.05189
4.97	4.05682
4.98	4.05584
4.99	4.04564
5	4.04564
5.01	4.04301
5.02	4.03709
5.03	4.04235
5.04	4.04169
5.05	4.03018
5.06	4.02492
5.07	4.0213
5.08	4.01867
5.09	4.01505
5.1	4.01439
5.11	4.01406
5.12	4.00978
5.13	4.01242
5.14	4.00288
5.15	3.9986
5.16	3.99663
5.17	3.99991
5.18	3.99465
5.19	3.99005
5.2	3.99235
5.21	3.97886
5.22	3.9759
5.23	3.97459
5.24	3.96768
5.25	3.96899
5.26	3.96406
5.27	3.9736
5.28	3.96439
5.29	3.96044
5.3	3.96274
5.31	3.95583
5.32	3.95781
5.33	3.9532
5.34	3.94333
5.35	3.9361
5.36	3.93939
5.37	3.94004
5.38	3.93577
5.39	3.93379
5.4	3.93675
5.41	3.93412
5.42	3.92722
5.43	3.92722
5.44	3.92096
5.45	3.91603
5.46	3.9134
5.47	3.90517
5.48	3.91143
5.49	3.90781
5.5	3.90846
5.51	3.90386
5.52	3.89728
5.53	3.89991
5.54	3.89399
5.55	3.89235
5.56	3.89004
5.57	3.89037
5.58	3.89004
5.59	3.88675
5.6	3.88642
5.61	3.88511
5.62	3.87425
5.63	3.87162
5.64	3.88017
5.65	3.87359
5.66	3.86044
5.67	3.86734
5.68	3.86208
5.69	3.86471
5.7	3.85682
5.71	3.85682
5.72	3.85254
5.73	3.85123
5.74	3.84333
5.75	3.83971
5.76	3.8453
5.77	3.843
5.78	3.8384
5.79	3.8328
5.8	3.8384
5.81	3.83182
5.82	3.82721
5.83	3.82721
5.84	3.81932
5.85	3.82162
5.86	3.82392
5.87	3.81142
5.88	3.81307
5.89	3.8078
5.9	3.81044
5.91	3.81274
5.92	3.80484
5.93	3.80484
5.94	3.79695
5.95	3.79497
5.96	3.80254
5.97	3.79399
5.98	3.79234
5.99	3.79333
6	3.78609
6.01	3.78609
6.02	3.77853
6.03	3.77326
6.04	3.7805
6.05	3.78149
6.06	3.7703
6.07	3.77326
6.08	3.76405
6.09	3.76668
6.1	3.76339
6.11	3.76175
6.12	3.75385
6.13	3.75616
6.14	3.75583
6.15	3.75714
6.16	3.75583
6.17	3.75056
6.18	3.74991
6.19	3.74695
6.2	3.73675
6.21	3.73741
6.22	3.74333
6.23	3.74366
6.24	3.73642
6.25	3.73543
6.26	3.7351
6.27	3.7328
6.28	3.71964
6.29	3.72195
6.3	3.71964
6.31	3.71306
6.32	3.7203
6.33	3.72063
6.34	3.71306
6.35	3.7101
6.36	3.7157
6.37	3.71405
6.38	3.71339
6.39	3.70681
6.4	3.69991
6.41	3.69958
6.42	3.69991
6.43	3.68971
6.44	3.69596
6.45	3.69004
6.46	3.67786
6.47	3.68148
6.48	3.68675
6.49	3.67655
6.5	3.67918
6.51	3.67951
6.52	3.67984
6.53	3.67918
6.54	3.67326
6.55	3.66701
6.56	3.66898
6.57	3.66536
6.58	3.66372
6.59	3.66569
6.6	3.66273
6.61	3.65846
6.62	3.6624
6.63	3.65681
6.64	3.6578
6.65	3.65352
6.66	3.64727
6.67	3.65221
6.68	3.65122
6.69	3.64398
6.7	3.64596
6.71	3.63938
6.72	3.64332
6.73	3.64069
6.74	3.63444
6.75	3.63346
6.76	3.63082
6.77	3.63181
6.78	3.63181
6.79	3.63411
6.8	3.62918
6.81	3.62227
6.82	3.62622
6.83	3.63115
6.84	3.6249
6.85	3.62161
6.86	3.6203
6.87	3.62359
6.88	3.61734
6.89	3.61503
6.9	3.60845
6.91	3.60911
6.92	3.60878
6.93	3.60582
6.94	3.60582
6.95	3.60385
6.96	3.60056
6.97	3.59924
6.98	3.60155
6.99	3.60418
7	3.59661
7.01	3.59431
7.02	3.59135
7.03	3.59727
7.04	3.59201
7.05	3.58707
7.06	3.58609
7.07	3.59069
7.08	3.5874
7.09	3.58214
7.1	3.58181
7.11	3.57819
7.12	3.57885
7.13	3.5828
7.14	3.57885
7.15	3.57424
7.16	3.56964
7.17	3.57424
7.18	3.56536
7.19	3.56668
7.2	3.5703
7.21	3.56931
7.22	3.56536
7.23	3.55845
7.24	3.56108
7.25	3.5578
7.26	3.55582
7.27	3.55253
7.28	3.5522
7.29	3.55122
7.3	3.55155
7.31	3.55451
7.32	3.54957
7.33	3.54793
7.34	3.54069
7.35	3.54266
7.36	3.54201
7.37	3.54135
7.38	3.53773
7.39	3.53279
7.4	3.53312
7.41	3.53576
7.42	3.52227
7.43	3.53345
7.44	3.52786
7.45	3.52654
7.46	3.51865
7.47	3.517
7.48	3.51766
7.49	3.52325
7.5	3.51931
7.51	3.51339
7.52	3.51075
7.53	3.51108
7.54	3.51371
7.55	3.51273
7.56	3.50746
7.57	3.50944
7.58	3.50352
7.59	3.5045
7.6	3.50549
7.61	3.50121
7.62	3.50089
7.63	3.49891
7.64	3.49694
7.65	3.49562
7.66	3.49398
7.67	3.4976
7.68	3.50089
7.69	3.48904
7.7	3.49102
7.71	3.49299
7.72	3.4874
7.73	3.48641
7.74	3.48181
7.75	3.48707
7.76	3.49299
7.77	3.49135
7.78	3.47917
7.79	3.47424
7.8	3.48181
7.81	3.47753
7.82	3.4851
7.83	3.47457
7.84	3.46667
7.85	3.47325
7.86	3.467
7.87	3.47621
7.88	3.46832
7.89	3.47029
7.9	3.46075
7.91	3.46009
7.92	3.45681
7.93	3.46931
7.94	3.46075
7.95	3.46437
7.96	3.46141
7.97	3.45878
7.98	3.45812
7.99	3.45944
8	3.4522
8.01	3.45319
8.02	3.45154
8.03	3.45253
8.04	3.45483
8.05	3.44891
8.06	3.44858
8.07	3.45187
8.08	3.44891
8.09	3.44529
8.1	3.44266
8.11	3.44134
8.12	3.4374
8.13	3.43148
8.14	3.43641
8.15	3.44398
8.16	3.43608
8.17	3.43082
8.18	3.43049
8.19	3.43213
8.2	3.4295
8.21	3.4318
8.22	3.43378
8.23	3.43345
8.24	3.43082
8.25	3.43246
8.26	3.42884
8.27	3.42884
8.28	3.42226
8.29	3.42292
8.3	3.41963
8.31	3.41963
8.32	3.42095
8.33	3.41897
8.34	3.42095
8.35	3.41404
8.36	3.41667
8.37	3.41503
8.38	3.41042
8.39	3.41207
8.4	3.41404
8.41	3.42292
8.42	3.4124
8.43	3.41141
8.44	3.40944
8.45	3.40812
8.46	3.40812
8.47	3.40483
8.48	3.40549
8.49	3.40878
8.5	3.4022
8.51	3.40483
8.52	3.40351
8.53	3.4022
8.54	3.39957
8.55	3.4045
8.56	3.3999
8.57	3.39726
8.58	3.39792
8.59	3.39628
8.6	3.40055
8.61	3.39759
8.62	3.39068
8.63	3.38707
8.64	3.38838
8.65	3.39036
8.66	3.38707
8.67	3.38871
8.68	3.39036
8.69	3.3897
8.7	3.38772
8.71	3.38542
8.72	3.38246
8.73	3.38443
8.74	3.38114
8.75	3.37654
8.76	3.37588
8.77	3.36897
8.78	3.37489
8.79	3.37786
8.8	3.37358
8.81	3.37687
8.82	3.37424
8.83	3.37095
8.84	3.36568
8.85	3.37226
8.86	3.36799
8.87	3.36634
8.88	3.36535
8.89	3.36766
8.9	3.37292
8.91	3.36996
8.92	3.36601
8.93	3.36305
8.94	3.36437
8.95	3.36437
8.96	3.36042
8.97	3.36963
8.98	3.3647
8.99	3.36503
9	3.36174
9.01	3.35845
9.02	3.36207
9.03	3.36108
9.04	3.3591
9.05	3.35187
9.06	3.35318
9.07	3.35746
9.08	3.35845
9.09	3.35614
9.1	3.35417
9.11	3.35055
9.12	3.34956
9.13	3.3466
9.14	3.34496
9.15	3.34595
9.16	3.35055
9.17	3.34463
9.18	3.34134
9.19	3.34595
9.2	3.34759
9.21	3.35154
9.22	3.34101
9.23	3.34397
9.24	3.34628
9.25	3.34628
9.26	3.34562
9.27	3.34035
9.28	3.34134
9.29	3.34397
9.3	3.34035
9.31	3.33674
9.32	3.33739
9.33	3.33312
9.34	3.33542
9.35	3.33575
9.36	3.33345
9.37	3.33246
9.38	3.33246
9.39	3.33114
9.4	3.32785
9.41	3.3318
9.42	3.3272
9.43	3.32818
9.44	3.32522
9.45	3.32654
9.46	3.33443
9.47	3.32752
9.48	3.32752
9.49	3.32325
9.5	3.31897
9.51	3.32095
9.52	3.32325
9.53	3.32226
9.54	3.31897
9.55	3.32424
9.56	3.317
9.57	3.3193
9.58	3.3193
9.59	3.31831
9.6	3.31864
9.61	3.32292
9.62	3.32095
9.63	3.32095
9.64	3.3147
9.65	3.32127
9.66	3.31601
9.67	3.31305
9.68	3.31601
9.69	3.31404
9.7	3.31667
9.71	3.31535
9.72	3.31601
9.73	3.30581
9.74	3.3091
9.75	3.31075
9.76	3.31206
9.77	3.30976
9.78	3.30647
9.79	3.30746
9.8	3.31108
9.81	3.30713
9.82	3.29923
9.83	3.29792
9.84	3.30647
9.85	3.29923
9.86	3.29792
9.87	3.30318
9.88	3.30088
9.89	3.30055
9.9	3.2943
9.91	3.29562
9.92	3.30285
9.93	3.30285
9.94	3.29529
9.95	3.29463
9.96	3.29364
9.97	3.29594
9.98	3.30088
9.99	3.30351
10	3.29627
10.01	3.30088
10.02	3.29956
10.03	3.29792
10.04	3.29693
10.05	3.2966
10.06	3.29529
10.07	3.28575
10.08	3.29331
10.09	3.28904
10.1	3.28904
10.11	3.29726
10.12	3.2966
10.13	3.28673
10.14	3.28706
10.15	3.28838
10.16	3.292
10.17	3.28871
10.18	3.28838
10.19	3.28838
10.2	3.29035
10.21	3.29134
10.22	3.28706
10.23	3.28377
10.24	3.2841
10.25	3.2841
10.26	3.28312
10.27	3.27719
10.28	3.2841
10.29	3.28048
10.3	3.2795
10.31	3.27325
10.32	3.27489
10.33	3.27687
10.34	3.27983
10.35	3.2818
10.36	3.27358
10.37	3.27555
10.38	3.26963
10.39	3.2693
10.4	3.27358
10.41	3.26963
10.42	3.26338
10.43	3.27193
10.44	3.27259
10.45	3.27292
10.46	3.26733
10.47	3.27094
10.48	3.27094
10.49	3.2716
10.5	3.25976
10.51	3.26634
10.52	3.267
10.53	3.27094
10.54	3.26371
10.55	3.26535
10.56	3.25811
10.57	3.26765
10.58	3.26272
10.59	3.26469
10.6	3.25548
10.61	3.25844
10.62	3.25943
10.63	3.25482
10.64	3.2568
10.65	3.25844
10.66	3.2545
10.67	3.25417
10.68	3.25811
10.69	3.25811
10.7	3.25811
10.71	3.2568
10.72	3.25384
10.73	3.25285
10.74	3.25252
10.75	3.25285
10.76	3.2568
10.77	3.2545
10.78	3.24726
10.79	3.25219
10.8	3.25154
10.81	3.25154
10.82	3.25055
10.83	3.24956
10.84	3.25318
10.85	3.2489
10.86	3.24561
10.87	3.24364
10.88	3.24463
10.89	3.24594
10.9	3.24726
10.91	3.24529
10.92	3.24529
10.93	3.24101
10.94	3.24298
10.95	3.24265
10.96	3.24923
10.97	3.24693
10.98	3.24825
10.99	3.2466
11	3.25318
11.01	3.24923
11.02	3.24496
11.03	3.24529
11.04	3.24232
11.05	3.25384
11.06	3.25121
11.07	3.24956
11.08	3.24331
11.09	3.23805
11.1	3.23838
11.11	3.24167
11.12	3.24397
11.13	3.24726
11.14	3.24101
11.15	3.24167
11.16	3.23838
11.17	3.24167
11.18	3.24134
11.19	3.24035
11.2	3.24594
11.21	3.24331
11.22	3.24364
11.23	3.24331
11.24	3.24002
11.25	3.23509
11.26	3.23706
11.27	3.23969
11.28	3.24068
11.29	3.23871
11.3	3.23706
11.31	3.23903
11.32	3.23114
11.33	3.22719
11.34	3.23542
11.35	3.23344
11.36	3.23278
11.37	3.23344
11.38	3.23344
11.39	3.23311
11.4	3.23311
11.41	3.23081
11.42	3.22555
11.43	3.22982
11.44	3.2318
11.45	3.22818
11.46	3.23048
11.47	3.23246
11.48	3.23147
11.49	3.22818
11.5	3.23213
11.51	3.23311
11.52	3.22884
11.53	3.23048
11.54	3.22588
11.55	3.2239
11.56	3.22456
11.57	3.22193
11.58	3.22588
11.59	3.22686
11.6	3.22226
11.61	3.22423
11.62	3.22489
11.63	3.22226
11.64	3.22653
11.65	3.22522
11.66	3.2216
11.67	3.21634
11.68	3.22456
11.69	3.22028
11.7	3.21798
11.71	3.21864
11.72	3.21765
11.73	3.21338
11.74	3.22028
11.75	3.22127
11.76	3.22324
11.77	3.21765
11.78	3.21798
11.79	3.21436
11.8	3.21601
11.81	3.22127
11.82	3.21765
11.83	3.21469
11.84	3.21699
11.85	3.22193
11.86	3.22292
11.87	3.21173
11.88	3.21074
11.89	3.21338
11.9	3.21634
11.91	3.2239
11.92	3.22357
11.93	3.22094
11.94	3.21897
11.95	3.22061
11.96	3.21634
11.97	3.21403
11.98	3.21535
11.99	3.22094
12	3.21996
12.01	3.21634
12.02	3.21831
12.03	3.2193
12.04	3.21765
12.05	3.22522
12.06	3.21403
12.07	3.21699
12.08	3.21568
12.09	3.21502
12.1	3.22193
12.11	3.21831
12.12	3.21305
12.13	3.21601
12.14	3.21107
12.15	3.2114
12.16	3.21897
12.17	3.21502
12.18	3.21107
12.19	3.21699
12.2	3.21239
12.21	3.21042
12.22	3.21371
12.23	3.21502
12.24	3.21042
12.25	3.21502
12.26	3.21568
12.27	3.21173
12.28	3.20745
12.29	3.20844
12.3	3.20877
12.31	3.20745
12.32	3.20647
12.33	3.21074
12.34	3.20943
12.35	3.20417
12.36	3.20384
12.37	3.19759
12.38	3.19989
12.39	3.20186
12.4	3.2012
12.41	3.20351
12.42	3.20482
12.43	3.20186
12.44	3.20088
12.45	3.20153
12.46	3.19726
12.47	3.19364
12.48	3.19824
12.49	3.20088
12.5	3.19693
12.51	3.20318
12.52	3.19561
12.53	3.19561
12.54	3.19331
12.55	3.19035
12.56	3.19265
12.57	3.19134
12.58	3.19331
12.59	3.19956
12.6	3.19759
12.61	3.19463
12.62	3.19857
12.63	3.1989
12.64	3.19265
12.65	3.1943
12.66	3.19594
12.67	3.20285
12.68	3.1989
12.69	3.19463
12.7	3.19561
12.71	3.19824
12.72	3.19561
12.73	3.2012
12.74	3.20285
12.75	3.21042
12.76	3.20022
12.77	3.19923
12.78	3.19726
12.79	3.20153
12.8	3.20088
12.81	3.19956
12.82	3.1989
12.83	3.19857
12.84	3.19265
12.85	3.19726
12.86	3.19528
12.87	3.1989
12.88	3.19463
12.89	3.2012
12.9	3.19364
12.91	3.19232
12.92	3.19495
12.93	3.19463
12.94	3.19298
12.95	3.19693
12.96	3.19463
12.97	3.19956
12.98	3.19759
12.99	3.20778
13	3.1966
13.01	3.19989
13.02	3.19693
13.03	3.19528
13.04	3.1989
13.05	3.19397
13.06	3.19101
13.07	3.19232
13.08	3.19002
13.09	3.19364
13.1	3.18607
13.11	3.18673
13.12	3.19397
13.13	3.1841
13.14	3.18772
13.15	3.19035
13.16	3.1864
13.17	3.18936
13.18	3.18607
13.19	3.18706
13.2	3.18147
13.21	3.18147
13.22	3.18574
13.23	3.18048
13.24	3.18443
13.25	3.18476
13.26	3.18377
13.27	3.1864
13.28	3.18015
13.29	3.17916
13.3	3.18311
13.31	3.17916
13.32	3.17423
13.33	3.17587
13.34	3.17522
13.35	3.17719
13.36	3.18114
13.37	3.18015
13.38	3.18377
13.39	3.18114
13.4	3.18278
13.41	3.17719
13.42	3.17193
13.43	3.17291
13.44	3.17752
13.45	3.18015
13.46	3.17818
13.47	3.17357
13.48	3.18147
13.49	3.17489
13.5	3.17555
13.51	3.18574
13.52	3.17884
13.53	3.17587
13.54	3.1762
13.55	3.1841
13.56	3.17982
13.57	3.17291
13.58	3.17226
13.59	3.17259
13.6	3.18081
13.61	3.17522
13.62	3.17522
13.63	3.17587
13.64	3.1762
13.65	3.17522
13.66	3.17851
13.67	3.17587
13.68	3.17423
13.69	3.17653
13.7	3.17851
13.71	3.1818
13.72	3.17785
13.73	3.17752
13.74	3.1818
13.75	3.17752
13.76	3.17555
13.77	3.17752
13.78	3.17916
13.79	3.18015
13.8	3.17489
13.81	3.17752
13.82	3.1762
13.83	3.17127
13.84	3.17489
13.85	3.18245
13.86	3.17587
13.87	3.17522
13.88	3.1716
13.89	3.1716
13.9	3.18015
13.91	3.17291
13.92	3.16699
13.93	3.16568
13.94	3.16699
13.95	3.16962
13.96	3.17028
13.97	3.16634
13.98	3.17259
13.99	3.17522
14	3.17324
14.01	3.17291
14.02	3.1739
14.03	3.16995
14.04	3.17291
14.05	3.16765
14.06	3.16962
14.07	3.16831
14.08	3.1739
14.09	3.17357
14.1	3.17423
14.11	3.17061
14.12	3.16864
14.13	3.1716
14.14	3.16897
14.15	3.16699
14.16	3.16831
14.17	3.16962
14.18	3.16568
14.19	3.1693
14.2	3.16666
14.21	3.16272
14.22	3.16535
14.23	3.16469
14.24	3.16634
14.25	3.16403
14.26	3.16074
14.27	3.16337
14.28	3.16831
14.29	3.16074
14.3	3.1637
14.31	3.16666
14.32	3.1637
14.33	3.16469
14.34	3.16568
14.35	3.16995
14.36	3.17094
14.37	3.17291
14.38	3.16897
14.39	3.16962
14.4	3.17259
14.41	3.16995
14.42	3.16337
14.43	3.16535
14.44	3.17127
14.45	3.16601
14.46	3.1637
14.47	3.16469
14.48	3.17127
14.49	3.16469
14.5	3.16864
14.51	3.16502
14.52	3.16568
14.53	3.16535
14.54	3.16864
14.55	3.17094
14.56	3.17193
14.57	3.17489
14.58	3.1739
14.59	3.17094
14.6	3.16732
14.61	3.16995
14.62	3.16535
14.63	3.16765
14.64	3.16864
14.65	3.17259
14.66	3.17587
14.67	3.17193
14.68	3.16601
14.69	3.16831
14.7	3.16469
14.71	3.16272
14.72	3.16798
14.73	3.16403
14.74	3.16568
14.75	3.1614
14.76	3.1637
14.77	3.16272
14.78	3.16041
14.79	3.1614
14.8	3.1614
14.81	3.16239
14.82	3.16469
14.83	3.15581
14.84	3.16699
14.85	3.1637
14.86	3.15976
14.87	3.1568
14.88	3.16173
14.89	3.16008
14.9	3.16206
14.91	3.15285
14.92	3.15647
14.93	3.15778
14.94	3.16502
14.95	3.1591
14.96	3.1614
14.97	3.16305
14.98	3.15943
14.99	3.16239
15	3.15778
15.01	3.1614
15.02	3.15581
15.03	3.15778
15.04	3.15581
15.05	3.1466
15.06	3.15318
15.07	3.16041
15.08	3.15581
15.09	3.15351
15.1	3.15614
15.11	3.15745
15.12	3.15811
15.13	3.15745
15.14	3.15219
15.15	3.1489
15.16	3.15581
15.17	3.15647
15.18	3.15482
15.19	3.14824
15.2	3.15186
15.21	3.15712
15.22	3.14758
15.23	3.15087
15.24	3.1512
15.25	3.15022
15.26	3.14989
15.27	3.15153
15.28	3.15252
15.29	3.15811
15.3	3.14989
15.31	3.15153
15.32	3.15087
15.33	3.15449
15.34	3.14594
15.35	3.14923
15.36	3.14693
15.37	3.1489
15.38	3.15022
15.39	3.14594
15.4	3.14429
15.41	3.14561
15.42	3.14101
15.43	3.14758
15.44	3.14989
15.45	3.15581
15.46	3.15581
15.47	3.15877
15.48	3.15581
15.49	3.15055
15.5	3.15022
15.51	3.15022
15.52	3.14824
15.53	3.15383
15.54	3.15614
15.55	3.15022
15.56	3.14857
15.57	3.15055
15.58	3.1489
15.59	3.15581
15.6	3.15055
15.61	3.15351
15.62	3.15186
15.63	3.14857
15.64	3.15022
15.65	3.15351
15.66	3.15022
15.67	3.15318
15.68	3.15383
15.69	3.1466
15.7	3.14429
15.71	3.1489
15.72	3.14857
15.73	3.15219
15.74	3.14791
15.75	3.15055
15.76	3.1489
15.77	3.15285
15.78	3.15186
15.79	3.15022
15.8	3.15153
15.81	3.15252
15.82	3.15416
15.83	3.15515
15.84	3.14791
15.85	3.1489
15.86	3.14923
15.87	3.14528
15.88	3.14199
15.89	3.14528
15.9	3.14331
15.91	3.15186
15.92	3.15252
15.93	3.14726
15.94	3.14726
15.95	3.14824
15.96	3.14495
15.97	3.14298
15.98	3.14627
15.99	3.14232
16	3.14068
16.01	3.14528
16.02	3.14397
16.03	3.14528
16.04	3.13936
16.05	3.14298
16.06	3.14298
16.07	3.14397
16.08	3.14166
16.09	3.14298
16.1	3.14298
16.11	3.14462
16.12	3.13476
16.13	3.13673
16.14	3.14298
16.15	3.14791
16.16	3.13903
16.17	3.13903
16.18	3.14495
16.19	3.14791
16.2	3.14199
16.21	3.14298
16.22	3.14265
16.23	3.13804
16.24	3.14331
16.25	3.14133
16.26	3.14068
16.27	3.14693
16.28	3.14627
16.29	3.14693
16.3	3.14298
16.31	3.1466
16.32	3.14758
16.33	3.14495
16.34	3.13936
16.35	3.14726
16.36	3.14002
16.37	3.14232
16.38	3.14199
16.39	3.14627
16.4	3.14561
16.41	3.14397
16.42	3.14495
16.43	3.14035
16.44	3.1466
16.45	3.14726
16.46	3.14101
16.47	3.14199
16.48	3.13903
16.49	3.14528
16.5	3.1466
16.51	3.14199
16.52	3.14693
16.53	3.14528
16.54	3.14101
16.55	3.13574
16.56	3.14364
16.57	3.14133
16.58	3.13936
16.59	3.13936
16.6	3.13739
16.61	3.13673
16.62	3.14364
16.63	3.14397
16.64	3.13969
16.65	3.14133
16.66	3.14331
16.67	3.13936
16.68	3.14265
16.69	3.13969
16.7	3.14068
16.71	3.13804
16.72	3.13804
16.73	3.1387
16.74	3.13673
16.75	3.13772
16.76	3.13574
16.77	3.14232
16.78	3.13903
16.79	3.13936
16.8	3.1341
16.81	3.14068
16.82	3.13772
16.83	3.14035
16.84	3.13739
16.85	3.14265
16.86	3.13903
16.87	3.13443
16.88	3.13541
16.89	3.14298
16.9	3.14133
16.91	3.1387
16.92	3.14726
16.93	3.13936
16.94	3.14232
16.95	3.14298
16.96	3.14298
16.97	3.13443
16.98	3.12982
16.99	3.13508
17	3.13048
17.01	3.13837
17.02	3.13574
17.03	3.13936
17.04	3.13081
17.05	3.13607
17.06	3.13344
17.07	3.13541
17.08	3.1364
17.09	3.13508
17.1	3.13476
17.11	3.13508
17.12	3.13837
17.13	3.14298
17.14	3.14101
17.15	3.13936
17.16	3.13706
17.17	3.14166
17.18	3.14265
17.19	3.13936
17.2	3.14035
17.21	3.13969
17.22	3.13673
17.23	3.12883
17.24	3.13508
17.25	3.13673
17.26	3.13245
17.27	3.12949
17.28	3.13739
17.29	3.13837
17.3	3.13607
17.31	3.13607
17.32	3.13574
17.33	3.13245
17.34	3.13278
17.35	3.13048
17.36	3.13147
17.37	3.13772
17.38	3.13673
17.39	3.13311
17.4	3.13114
17.41	3.13311
17.42	3.13377
17.43	3.13541
17.44	3.13476
17.45	3.13048
17.46	3.13114
17.47	3.13114
17.48	3.13574
17.49	3.1341
17.5	3.13311
17.51	3.13179
17.52	3.13344
17.53	3.12752
17.54	3.1262
17.55	3.12818
17.56	3.13574
17.57	3.12916
17.58	3.13377
17.59	3.12883
17.6	3.13377
17.61	3.1364
17.62	3.13179
17.63	3.13476
17.64	3.13114
17.65	3.13114
17.66	3.13377
17.67	3.13476
17.68	3.1285
17.69	3.13476
17.7	3.13048
17.71	3.12653
17.72	3.12653
17.73	3.13081
17.74	3.12719
17.75	3.13212
17.76	3.12719
17.77	3.1285
17.78	3.12949
17.79	3.12522
17.8	3.12653
17.81	3.13081
17.82	3.13476
17.83	3.12719
17.84	3.12587
17.85	3.12456
17.86	3.12653
17.87	3.12818
17.88	3.13179
17.89	3.12752
17.9	3.12522
17.91	3.13147
17.92	3.12752
17.93	3.1262
17.94	3.1262
17.95	3.12489
17.96	3.12225
17.97	3.12489
17.98	3.12883
17.99	3.12916
18	3.12883
18.01	3.13081
18.02	3.13804
18.03	3.13245
18.04	3.13278
18.05	3.12752
18.06	3.13212
18.07	3.12456
18.08	3.13278
18.09	3.12423
18.1	3.12291
18.11	3.12818
18.12	3.13344
18.13	3.13179
18.14	3.12357
18.15	3.12916
18.16	3.13147
18.17	3.1341
18.18	3.12949
18.19	3.13278
18.2	3.12752
18.21	3.12949
18.22	3.13476
18.23	3.13114
18.24	3.12785
18.25	3.12587
18.26	3.12785
18.27	3.13739
18.28	3.12818
18.29	3.12982
18.3	3.1341
18.31	3.12916
18.32	3.13508
18.33	3.13179
18.34	3.13114
18.35	3.13804
18.36	3.12818
18.37	3.12423
18.38	3.12818
18.39	3.1285
18.4	3.13081
18.41	3.13212
18.42	3.13147
18.43	3.13476
18.44	3.1341
18.45	3.13476
18.46	3.12686
18.47	3.13541
18.48	3.12916
18.49	3.13081
18.5	3.12785
18.51	3.12357
18.52	3.12719
18.53	3.12785
18.54	3.12818
18.55	3.12752
18.56	3.12061
18.57	3.1239
18.58	3.1216
18.59	3.12423
18.6	3.12258
18.61	3.12127
18.62	3.12291
18.63	3.12489
18.64	3.1262
18.65	3.12554
18.66	3.11666
18.67	3.12522
18.68	3.1285
18.69	3.12357
18.7	3.12258
18.71	3.11831
18.72	3.11864
18.73	3.11831
18.74	3.12061
18.75	3.12456
18.76	3.12752
18.77	3.12094
18.78	3.12061
18.79	3.12258
18.8	3.12061
18.81	3.12258
18.82	3.12094
18.83	3.12554
18.84	3.1285
18.85	3.12225
18.86	3.11798
18.87	3.12456
18.88	3.12061
18.89	3.12094
18.9	3.116
18.91	3.12028
18.92	3.12061
18.93	3.12061
18.94	3.11633
18.95	3.11962
18.96	3.1216
18.97	3.12094
18.98	3.1216
18.99	3.12587
19	3.11831
19.01	3.11864
19.02	3.11633
19.03	3.11995
19.04	3.12094
19.05	3.12127
19.06	3.12489
19.07	3.11699
19.08	3.11502
19.09	3.11765
19.1	3.11995
19.11	3.11864
19.12	3.12061
19.13	3.11864
19.14	3.11798
19.15	3.11897
19.16	3.1262
19.17	3.12587
19.18	3.11929
19.19	3.11897
19.2	3.12522
19.21	3.1239
19.22	3.12258
19.23	3.12258
19.24	3.12061
19.25	3.12028
19.26	3.11897
19.27	3.12028
19.28	3.11929
19.29	3.1216
19.3	3.1239
19.31	3.12193
19.32	3.11831
19.33	3.11929
19.34	3.11469
19.35	3.1216
19.36	3.11008
19.37	3.11765
19.38	3.11864
19.39	3.11765
19.4	3.11633
19.41	3.11535
19.42	3.11765
19.43	3.11502
19.44	3.11469
19.45	3.11732
19.46	3.11436
19.47	3.11008
19.48	3.11271
19.49	3.11502
19.5	3.11831
19.51	3.11502
19.52	3.11666
19.53	3.11436
19.54	3.11765
19.55	3.11666
19.56	3.11699
19.57	3.11568
19.58	3.11897
19.59	3.1137
19.6	3.11436
19.61	3.11535
19.62	3.11337
19.63	3.11469
19.64	3.11271
19.65	3.11403
19.66	3.11107
19.67	3.10877
19.68	3.11568
19.69	3.11502
19.7	3.11633
19.71	3.11699
19.72	3.1137
19.73	3.11304
19.74	3.11633
19.75	3.11798
19.76	3.11535
19.77	3.11469
19.78	3.11469
19.79	3.11897
19.8	3.11633
19.81	3.116
19.82	3.11699
19.83	3.11962
19.84	3.11929
19.85	3.11304
19.86	3.116
19.87	3.11271
19.88	3.11535
19.89	3.11041
19.9	3.11864
19.91	3.1137
19.92	3.116
19.93	3.11765
19.94	3.11436
19.95	3.11798
19.96	3.11568
19.97	3.11206
19.98	3.1137
19.99	3.11271
20	3.11568
20.01	3.1137
20.02	3.10778
20.03	3.11502
20.04	3.11798
20.05	3.11699
20.06	3.11304
20.07	3.11206
20.08	3.11173
20.09	3.10515
20.1	3.10975
20.11	3.10975
20.12	3.11699
20.13	3.11337
20.14	3.11798
20.15	3.11337
20.16	3.10811
20.17	3.11008
20.18	3.11206
20.19	3.11798
20.2	3.11271
20.21	3.11271
20.22	3.11107
20.23	3.11502
20.24	3.11337
20.25	3.1137
20.26	3.10548
20.27	3.11699
20.28	3.10778
20.29	3.10975
20.3	3.10811
20.31	3.11206
20.32	3.11008
20.33	3.11008
20.34	3.1114
20.35	3.10975
20.36	3.11173
20.37	3.11074
20.38	3.11304
20.39	3.11436
20.4	3.11568
20.41	3.10943
20.42	3.11074
20.43	3.11633
20.44	3.10811
20.45	3.10811
20.46	3.11074
20.47	3.10712
20.48	3.10943
20.49	3.1114
20.5	3.11337
20.51	3.11469
20.52	3.11337
20.53	3.1091
20.54	3.10975
20.55	3.1091
20.56	3.10548
20.57	3.10778
20.58	3.10745
20.59	3.11239
20.6	3.1091
20.61	3.11436
20.62	3.10943
20.63	3.10679
20.64	3.10877
20.65	3.1114
20.66	3.11074
20.67	3.10943
20.68	3.10975
20.69	3.10778
20.7	3.11732
20.71	3.11008
20.72	3.11469
20.73	3.11568
20.74	3.1114
20.75	3.1137
20.76	3.11502
20.77	3.11633
20.78	3.116
20.79	3.1216
20.8	3.11337
20.81	3.11337
20.82	3.10975
20.83	3.11107
20.84	3.10877
20.85	3.11008
20.86	3.11041
20.87	3.11239
20.88	3.10877
20.89	3.116
20.9	3.10844
20.91	3.11107
20.92	3.1091
20.93	3.11239
20.94	3.11041
20.95	3.10975
20.96	3.10679
20.97	3.11304
20.98	3.10252
20.99	3.10975
21	3.10877
21.01	3.10943
21.02	3.11206
21.03	3.10482
21.04	3.11041
21.05	3.11502
21.06	3.1114
21.07	3.10712
21.08	3.10778
21.09	3.11107
21.1	3.11403
21.11	3.10877
21.12	3.10712
21.13	3.1137
21.14	3.1114
21.15	3.11765
21.16	3.11699
21.17	3.11469
21.18	3.11173
21.19	3.10745
21.2	3.11008
21.21	3.11304
21.22	3.11008
21.23	3.11271
21.24	3.11633
21.25	3.11304
21.26	3.11666
21.27	3.11436
21.28	3.12127
21.29	3.11732
21.3	3.11008
21.31	3.10186
21.32	3.10383
21.33	3.10712
21.34	3.11337
21.35	3.11074
21.36	3.11502
21.37	3.11864
21.38	3.10778
21.39	3.1091
21.4	3.11239
21.41	3.10614
21.42	3.10844
21.43	3.10943
21.44	3.11304
21.45	3.11107
21.46	3.10416
21.47	3.10581
21.48	3.10877
21.49	3.10548
21.5	3.10186
21.51	3.10482
21.52	3.10548
21.53	3.10482
21.54	3.10548
21.55	3.10778
21.56	3.11239
21.57	3.11008
21.58	3.10581
21.59	3.10778
21.6	3.10318
21.61	3.1091
21.62	3.11107
21.63	3.10186
21.64	3.10252
21.65	3.10252
21.66	3.10712
21.67	3.10844
21.68	3.10811
21.69	3.10581
21.7	3.10581
21.71	3.10679
21.72	3.10449
21.73	3.10614
21.74	3.10285
21.75	3.11074
21.76	3.10449
21.77	3.10219
21.78	3.10811
21.79	3.10646
21.8	3.10943
21.81	3.10252
21.82	3.10975
21.83	3.10778
21.84	3.10054
21.85	3.10614
21.86	3.10679
21.87	3.10679
21.88	3.10318
21.89	3.1035
21.9	3.10614
21.91	3.11173
21.92	3.10679
21.93	3.10153
21.94	3.10943
21.95	3.10745
21.96	3.10153
21.97	3.10318
21.98	3.10811
21.99	3.10515
22	3.10054
22.01	3.10416
22.02	3.10318
22.03	3.10581
22.04	3.10153
22.05	3.10515
22.06	3.10416
22.07	3.09824
22.08	3.09824
22.09	3.0989
22.1	3.10087
22.11	3.1012
22.12	3.1012
22.13	3.10581
22.14	3.0989
22.15	3.10548
22.16	3.09692
22.17	3.10054
22.18	3.10054
22.19	3.1035
22.2	3.10449
22.21	3.09923
22.22	3.10219
22.23	3.10318
22.24	3.10614
22.25	3.10285
22.26	3.10153
22.27	3.1012
22.28	3.10087
22.29	3.10054
22.3	3.09956
22.31	3.10416
22.32	3.1114
22.33	3.10844
22.34	3.1012
22.35	3.10811
22.36	3.10548
22.37	3.10712
22.38	3.10515
22.39	3.09857
22.4	3.10318
22.41	3.10318
22.42	3.10712
22.43	3.10449
22.44	3.10318
22.45	3.10087
22.46	3.09495
22.47	3.09692
22.48	3.10548
22.49	3.09561
22.5	3.10054
22.51	3.09956
22.52	3.10416
22.53	3.10844
22.54	3.10449
22.55	3.10219
22.56	3.09989
22.57	3.09989
22.58	3.10186
22.59	3.10219
22.6	3.09758
22.61	3.09495
22.62	3.09857
22.63	3.09989
22.64	3.10054
22.65	3.0966
22.66	3.09989
22.67	3.09725
22.68	3.09824
22.69	3.09956
22.7	3.09956
22.71	3.09857
22.72	3.10087
22.73	3.09989
22.74	3.10087
22.75	3.0989
22.76	3.0966
22.77	3.10153
22.78	3.10252
22.79	3.09857
22.8	3.10318
22.81	3.10054
22.82	3.10021
22.83	3.0989
22.84	3.09232
22.85	3.09989
22.86	3.10087
22.87	3.10449
22.88	3.09824
22.89	3.09758
22.9	3.10219
22.91	3.1012
22.92	3.10449
22.93	3.10416
22.94	3.1035
22.95	3.10021
22.96	3.1035
22.97	3.10778
22.98	3.10581
22.99	3.0989
23	3.10054
23.01	3.10021
23.02	3.09956
23.03	3.10811
23.04	3.09594
23.05	3.10021
23.06	3.1035
23.07	3.10021
23.08	3.10482
23.09	3.10679
23.1	3.10581
23.11	3.10087
23.12	3.10087
23.13	3.10252
23.14	3.10646
23.15	3.10712
23.16	3.10186
23.17	3.0989
23.18	3.10054
23.19	3.1012
23.2	3.10548
23.21	3.1035
23.22	3.10219
23.23	3.10021
23.24	3.1012
23.25	3.10153
23.26	3.09594
23.27	3.10548
23.28	3.10679
23.29	3.10054
23.3	3.10186
23.31	3.10646
23.32	3.1137
23.33	3.1035
23.34	3.10021
23.35	3.10416
23.36	3.09923
23.37	3.10219
23.38	3.10285
23.39	3.09824
23.4	3.1035
23.41	3.10054
23.42	3.09824
23.43	3.10186
23.44	3.10318
23.45	3.10252
23.46	3.09824
23.47	3.09956
23.48	3.09923
23.49	3.09824
23.5	3.1012
23.51	3.09923
23.52	3.10482
23.53	3.0966
23.54	3.10054
23.55	3.09067
23.56	3.09528
23.57	3.09133
23.58	3.09495
23.59	3.09462
23.6	3.09824
23.61	3.09495
23.62	3.09758
23.63	3.09594
23.64	3.09265
23.65	3.09758
23.66	3.09265
23.67	3.09824
23.68	3.09396
23.69	3.09035
23.7	3.09725
23.71	3.09758
23.72	3.0989
23.73	3.09561
23.74	3.09429
23.75	3.1035
23.76	3.09824
23.77	3.10318
23.78	3.09923
23.79	3.09725
23.8	3.09956
23.81	3.09462
23.82	3.09692
23.83	3.10054
23.84	3.10219
23.85	3.1035
23.86	3.10087
23.87	3.09956
23.88	3.10054
23.89	3.09791
23.9	3.09956
23.91	3.09627
23.92	3.09692
23.93	3.0966
23.94	3.09923
23.95	3.09692
23.96	3.10087
23.97	3.09627
23.98	3.09298
23.99	3.10186
24	3.09758
24.01	3.09035
24.02	3.0966
24.03	3.1012
24.04	3.09331
24.05	3.08969
24.06	3.08739
24.07	3.09331
24.08	3.08804
24.09	3.09232
24.1	3.08771
24.11	3.08969
24.12	3.09199
24.13	3.09396
24.14	3.09561
24.15	3.08739
24.16	3.08541
24.17	3.08903
24.18	3.08771
24.19	3.08739
24.2	3.08146
24.21	3.09133
24.22	3.09429
24.23	3.09429
24.24	3.09298
24.25	3.09495
24.26	3.09133
24.27	3.09232
24.28	3.09133
24.29	3.09331
24.3	3.08969
24.31	3.09692
24.32	3.09232
24.33	3.08607
24.34	3.09495
24.35	3.09232
24.36	3.0887
24.37	3.08804
24.38	3.08673
24.39	3.08804
24.4	3.08706
24.41	3.09002
24.42	3.09462
24.43	3.09495
24.44	3.09067
24.45	3.09429
24.46	3.08837
24.47	3.09232
24.48	3.09364
24.49	3.09265
24.5	3.09067
24.51	3.0989
24.52	3.09429
24.53	3.09199
24.54	3.09725
24.55	3.09857
24.56	3.09989
24.57	3.09594
24.58	3.09396
24.59	3.09232
24.6	3.09594
24.61	3.1012
24.62	3.10153
24.63	3.09528
24.64	3.091
24.65	3.09166
24.66	3.09331
24.67	3.09331
24.68	3.09133
24.69	3.08936
24.7	3.08804
24.71	3.09396
24.72	3.09462
24.73	3.09002
24.74	3.0887
24.75	3.08969
24.76	3.09067
24.77	3.08739
24.78	3.09364
24.79	3.09627
24.8	3.09725
24.81	3.09199
24.82	3.09035
24.83	3.09265
24.84	3.08574
24.85	3.08837
24.86	3.0864
24.87	3.09067
24.88	3.08179
24.89	3.08442
24.9	3.09067
24.91	3.08673
24.92	3.08903
24.93	3.08903
24.94	3.08771
24.95	3.091
24.96	3.09331
24.97	3.09133
24.98	3.09067
24.99	3.0887
25	3.09166
25.01	3.08804
25.02	3.08936
25.03	3.09331
25.04	3.09199
25.05	3.08344
25.06	3.09561
25.07	3.09561
25.08	3.09594
25.09	3.08837
25.1	3.08706
25.11	3.09364
25.12	3.09166
25.13	3.09331
25.14	3.08706
25.15	3.09133
25.16	3.09429
25.17	3.09364
25.18	3.08771
25.19	3.09232
25.2	3.09265
25.21	3.09199
25.22	3.09462
25.23	3.09857
25.24	3.09989
25.25	3.09067
25.26	3.09758
25.27	3.09725
25.28	3.09627
25.29	3.09791
25.3	3.09791
25.31	3.10383
25.32	3.09561
25.33	3.09429
25.34	3.0966
25.35	3.09002
25.36	3.09265
25.37	3.10021
25.38	3.09692
25.39	3.09133
25.4	3.09627
25.41	3.09265
25.42	3.09462
25.43	3.09331
25.44	3.09166
25.45	3.08903
25.46	3.0887
25.47	3.091
25.48	3.091
25.49	3.0887
25.5	3.09528
25.51	3.09133
25.52	3.08081
25.53	3.0864
25.54	3.0887
25.55	3.09232
25.56	3.09035
25.57	3.08804
25.58	3.08607
25.59	3.07785
25.6	3.08804
25.61	3.0864
25.62	3.09396
25.63	3.08739
25.64	3.08245
25.65	3.091
25.66	3.08739
25.67	3.08245
25.68	3.08508
25.69	3.09035
25.7	3.0841
25.71	3.08541
25.72	3.07883
25.73	3.07752
25.74	3.08311
25.75	3.08508
25.76	3.08442
25.77	3.08903
25.78	3.08607
25.79	3.0887
25.8	3.08311
25.81	3.08146
25.82	3.091
25.83	3.08212
25.84	3.08936
25.85	3.08541
25.86	3.08706
25.87	3.08673
25.88	3.08574
25.89	3.08739
25.9	3.08903
25.91	3.09561
25.92	3.08837
25.93	3.08739
25.94	3.08969
25.95	3.0864
25.96	3.0864
25.97	3.08771
25.98	3.0887
25.99	3.08804
26	3.08903
26.01	3.0887
26.02	3.08475
26.03	3.09166
26.04	3.09002
26.05	3.0887
26.06	3.09067
26.07	3.09298
26.08	3.091
26.09	3.08903
26.1	3.09331
26.11	3.08837
26.12	3.08804
26.13	3.08475
26.14	3.0864
26.15	3.09594
26.16	3.09396
26.17	3.09133
26.18	3.08673
26.19	3.09067
26.2	3.08739
26.21	3.08673
26.22	3.09265
26.23	3.09232
26.24	3.09002
26.25	3.091
26.26	3.08475
26.27	3.08936
26.28	3.09067
26.29	3.09166
26.3	3.08673
26.31	3.08113
26.32	3.08574
26.33	3.08936
26.34	3.09298
26.35	3.09133
26.36	3.08739
26.37	3.08673
26.38	3.08377
26.39	3.08541
26.4	3.0887
26.41	3.08508
26.42	3.08607
26.43	3.08706
26.44	3.09035
26.45	3.08475
26.46	3.08804
26.47	3.08837
26.48	3.08771
26.49	3.08541
26.5	3.08475
26.51	3.09067
26.52	3.08739
26.53	3.09067
26.54	3.08541
26.55	3.07883
26.56	3.08377
26.57	3.08607
26.58	3.0841
26.59	3.0841
26.6	3.08442
26.61	3.08146
26.62	3.08081
26.63	3.08113
26.64	3.07587
26.65	3.08311
26.66	3.08607
26.67	3.08146
26.68	3.0864
26.69	3.08245
26.7	3.07982
26.71	3.0841
26.72	3.08048
26.73	3.08113
26.74	3.08311
26.75	3.08245
26.76	3.0864
26.77	3.08903
26.78	3.08377
26.79	3.08048
26.8	3.07982
26.81	3.07521
26.82	3.08442
26.83	3.07949
26.84	3.07982
26.85	3.08574
26.86	3.09067
26.87	3.08969
26.88	3.08607
26.89	3.08739
26.9	3.0887
26.91	3.08607
26.92	3.08607
26.93	3.07982
26.94	3.08969
26.95	3.09002
26.96	3.08903
26.97	3.09528
26.98	3.0887
26.99	3.08574
27	3.08574
27.01	3.0864
27.02	3.09067
27.03	3.0841
27.04	3.08837
27.05	3.08837
27.06	3.08212
27.07	3.08804
27.08	3.08837
27.09	3.08311
27.1	3.08837
27.11	3.08804
27.12	3.08574
27.13	3.08673
27.14	3.08146
27.15	3.08607
27.16	3.08212
27.17	3.0841
27.18	3.07949
27.19	3.07456
27.2	3.08113
27.21	3.08048
27.22	3.07817
27.23	3.07752
27.24	3.08344
27.25	3.08212
27.26	3.0841
27.27	3.07949
27.28	3.07883
27.29	3.08113
27.3	3.08081
27.31	3.07587
27.32	3.07291
27.33	3.07587
27.34	3.0762
27.35	3.07982
27.36	3.08146
27.37	3.07982
27.38	3.0739
27.39	3.07653
27.4	3.08278
27.41	3.08541
27.42	3.07192
27.43	3.08081
27.44	3.07883
27.45	3.07785
27.46	3.08442
27.47	3.08508
27.48	3.08541
27.49	3.08377
27.5	3.08508
27.51	3.08837
27.52	3.08377
27.53	3.0841
27.54	3.08245
27.55	3.08673
27.56	3.08574
27.57	3.0864
27.58	3.08377
27.59	3.08574
27.6	3.08475
27.61	3.08508
27.62	3.08179
27.63	3.08541
27.64	3.08706
27.65	3.08015
27.66	3.08278
27.67	3.08048
27.68	3.08442
27.69	3.08048
27.7	3.08508
27.71	3.08837
27.72	3.08245
27.73	3.08081
27.74	3.08245
27.75	3.08146
27.76	3.0841
27.77	3.08508
27.78	3.0864
27.79	3.0887
27.8	3.08245
27.81	3.0762
27.82	3.08344
27.83	3.0841
27.84	3.07587
27.85	3.08475
27.86	3.08311
27.87	3.08212
27.88	3.08475
27.89	3.08475
27.9	3.08245
27.91	3.07949
27.92	3.08015
27.93	3.08113
27.94	3.07949
27.95	3.07488
27.96	3.0864
27.97	3.08278
27.98	3.07719
27.99	3.0841
28	3.08212
28.01	3.08344
28.02	3.08475
28.03	3.08442
28.04	3.08344
28.05	3.0864
28.06	3.08048
28.07	3.07982
28.08	3.07982
28.09	3.08113
28.1	3.07982
28.11	3.07949
28.12	3.07949
28.13	3.08015
28.14	3.07916
28.15	3.08146
28.16	3.08048
28.17	3.07916
28.18	3.08245
28.19	3.08146
28.2	3.08442
28.21	3.07554
28.22	3.08245
28.23	3.07949
28.24	3.07817
28.25	3.07785
28.26	3.08146
28.27	3.08113
28.28	3.07916
28.29	3.08311
28.3	3.08212
28.31	3.07258
28.32	3.07357
28.33	3.0762
28.34	3.08015
28.35	3.08706
28.36	3.08179
28.37	3.08739
28.38	3.08541
28.39	3.08739
28.4	3.08607
28.41	3.07785
28.42	3.07225
28.43	3.07785
28.44	3.08475
28.45	3.08278
28.46	3.08541
28.47	3.08607
28.48	3.08048
28.49	3.0841
28.5	3.0785
28.51	3.0841
28.52	3.08574
28.53	3.07982
28.54	3.08442
28.55	3.08344
28.56	3.07982
28.57	3.07752
28.58	3.08113
28.59	3.08146
28.6	3.08278
28.61	3.08278
28.62	3.07686
28.63	3.08673
28.64	3.08541
28.65	3.07949
28.66	3.08113
28.67	3.08771
28.68	3.07982
28.69	3.07488
28.7	3.08113
28.71	3.08081
28.72	3.0841
28.73	3.08541
28.74	3.07982
28.75	3.08311
28.76	3.08081
28.77	3.08739
28.78	3.08607
28.79	3.07785
28.8	3.08015
28.81	3.0785
28.82	3.07686
28.83	3.08048
28.84	3.07982
28.85	3.08475
28.86	3.08146
28.87	3.08245
28.88	3.07686
28.89	3.07817
28.9	3.0841
28.91	3.08146
28.92	3.07719
28.93	3.08015
28.94	3.07521
28.95	3.08739
28.96	3.07949
28.97	3.08278
28.98	3.08015
28.99	3.07785
29	3.07949
29.01	3.0739
29.02	3.07982
29.03	3.08146
29.04	3.08574
29.05	3.08344
29.06	3.07916
29.07	3.08212
29.08	3.08278
29.09	3.08113
29.1	3.08541
29.11	3.07817
29.12	3.07752
29.13	3.0762
29.14	3.08015
29.15	3.07587
29.16	3.07785
29.17	3.0762
29.18	3.07324
29.19	3.07587
29.2	3.07291
29.21	3.07554
29.22	3.07554
29.23	3.07061
29.24	3.07258
29.25	3.07357
29.26	3.08179
29.27	3.07916
29.28	3.0762
29.29	3.07883
29.3	3.07587
29.31	3.07587
29.32	3.07686
29.33	3.07686
29.34	3.07521
29.35	3.07423
29.36	3.0762
29.37	3.07423
29.38	3.07357
29.39	3.07521
29.4	3.07423
29.41	3.07094
29.42	3.07456
29.43	3.08081
29.44	3.07883
29.45	3.07521
29.46	3.0716
29.47	3.07258
29.48	3.07719
29.49	3.07028
29.5	3.07324
29.51	3.07423
29.52	3.06962
29.53	3.07357
29.54	3.07686
29.55	3.07423
29.56	3.07587
29.57	3.07423
29.58	3.07587
29.59	3.07521
29.6	3.07291
29.61	3.07521
29.62	3.0762
29.63	3.07488
29.64	3.07357
29.65	3.07324
29.66	3.07028
29.67	3.07192
29.68	3.0762
29.69	3.0739
29.7	3.07192
29.71	3.07192
29.72	3.06962
29.73	3.08146
29.74	3.07456
29.75	3.07521
29.76	3.08344
29.77	3.07916
29.78	3.0762
29.79	3.0785
29.8	3.07719
29.81	3.07521
29.82	3.07653
29.83	3.08048
29.84	3.07949
29.85	3.07916
29.86	3.07719
29.87	3.08081
29.88	3.0762
29.89	3.08245
29.9	3.0739
29.91	3.07521
29.92	3.08015
29.93	3.07686
29.94	3.07127
29.95	3.07028
29.96	3.07686
29.97	3.07883
29.98	3.0762
29.99	3.07061
30	3.07752
