"BIO-KINE ASCII FILE"
"_COMMENT"	"MOS-500 Spectrometer"
"_COMMENT"	"Kinetics measurement"
"_COMMENT"	"Y Unit : Volt,  X Unit : s"
"_COMMENT"	"Excitation wavelength : 380 nm"
"_COMMENT"	"Fentes bandwidth =  1 nm"
"_COMMENT"	"HV= 1000V"
"_COMMENT"	"Timebase  1 =  .01 s   5001 pts"
"_SFM"	"SFM-400 /S  Advanced mode"
"_SFM"	"Ratio : S1: 2.5, S2: 0, S3: 0, S4: 1"
"_SFM"	"Content : S1: , S2: , S3: , S4:"
"_SFM"	"Concentration : S1: , S2: , S3: , S4:"
"_SFM"	"Total volume : 209 µl  Flow : 3.5 mL/s"
"_SFM"	"Acquisition start :  10 ms before stop"
"_SFM"	"cuve=FC-15, s1=10 ml , s2=10 ml , s3=10 ml , s4=1.9 ml"
"_UNITX"	"s"
"_UNITY"	"Volt"
"_DELTAX"	0
"_DATA"
1e-300	3.12949
0.01	3.29331
0.02	3.38443
0.03	3.46503
0.04	3.52161
0.05	3.56766
0.06	3.5772
0.07	3.60813
0.08	3.6203
0.09	3.61536
0.1	3.63938
0.11	3.64332
0.12	3.6624
0.13	3.64957
0.14	3.65846
0.15	3.68214
0.16	3.66438
0.17	3.6476
0.18	3.69102
0.19	3.65813
0.2	3.65254
0.21	3.70451
0.22	3.69004
0.23	3.69004
0.24	3.65254
0.25	3.6555
0.26	3.66734
0.27	3.67589
0.28	3.66175
0.29	3.68576
0.3	3.67063
0.31	3.6851
0.32	3.68477
0.33	3.70944
0.34	3.68115
0.35	3.66767
0.36	3.68412
0.37	3.67819
0.38	3.65615
0.39	3.68379
0.4	3.65846
0.41	3.69267
0.42	3.68412
0.43	3.69201
0.44	3.68444
0.45	3.73247
0.46	3.6874
0.47	3.69037
0.48	3.66438
0.49	3.65944
0.5	3.67129
0.51	3.69694
0.52	3.72491
0.53	3.70221
0.54	3.6953
0.55	3.66898
0.56	3.64925
0.57	3.68313
0.58	3.67326
0.59	3.67359
0.6	3.68017
0.61	3.66438
0.62	3.67161
0.63	3.67589
0.64	3.66504
0.65	3.65352
0.66	3.63477
0.67	3.65188
0.68	3.67918
0.69	3.68543
0.7	3.67655
0.71	3.6601
0.72	3.62128
0.73	3.66043
0.74	3.66635
0.75	3.64267
0.76	3.65582
0.77	3.68115
0.78	3.70418
0.79	3.68412
0.8	3.62819
0.81	3.62523
0.82	3.65846
0.83	3.64135
0.84	3.63543
0.85	3.67589
0.86	3.64267
0.87	3.62721
0.88	3.64925
0.89	3.64563
0.9	3.67063
0.91	3.64793
0.92	3.62753
0.93	3.64234
0.94	3.6476
0.95	3.64464
0.96	3.63675
0.97	3.62194
0.98	3.64003
0.99	3.62951
1	3.64563
1.01	3.66207
1.02	3.64464
1.03	3.65944
1.04	3.60648
1.05	3.64497
1.06	3.66207
1.07	3.63247
1.08	3.65517
1.09	3.67129
1.1	3.66635
1.11	3.66438
1.12	3.66569
1.13	3.62424
1.14	3.61207
1.15	3.6499
1.16	3.64398
1.17	3.64036
1.18	3.6226
1.19	3.65155
1.2	3.58477
1.21	3.64201
1.22	3.6249
1.23	3.66668
1.24	3.64727
1.25	3.6351
1.26	3.62589
1.27	3.63378
1.28	3.61273
1.29	3.63543
1.3	3.63444
1.31	3.66504
1.32	3.64497
1.33	3.65484
1.34	3.63477
1.35	3.5999
1.36	3.57885
1.37	3.63411
1.38	3.66471
1.39	3.60286
1.4	3.62589
1.41	3.61273
1.42	3.61964
1.43	3.62556
1.44	3.65188
1.45	3.65254
1.46	3.63411
1.47	3.62951
1.48	3.62622
1.49	3.62227
1.5	3.61701
1.51	3.62128
1.52	3.60023
1.53	3.59431
1.54	3.62326
1.55	3.64859
1.56	3.62392
1.57	3.60944
1.58	3.63378
1.59	3.62194
1.6	3.62326
1.61	3.59892
1.62	3.5828
1.63	3.59661
1.64	3.63444
1.65	3.65319
1.66	3.64036
1.67	3.62063
1.68	3.5953
1.69	3.59628
1.7	3.62161
1.71	3.61767
1.72	3.59924
1.73	3.59266
1.74	3.58609
1.75	3.60023
1.76	3.61043
1.77	3.61306
1.78	3.60023
1.79	3.59201
1.8	3.59168
1.81	3.59793
1.82	3.59102
1.83	3.58477
1.84	3.60517
1.85	3.6226
1.86	3.59957
1.87	3.58378
1.88	3.60418
1.89	3.6124
1.9	3.56964
1.91	3.55977
1.92	3.59299
1.93	3.58181
1.94	3.62786
1.95	3.61174
1.96	3.59892
1.97	3.58115
1.98	3.56437
1.99	3.56931
2	3.61865
2.01	3.62063
2.02	3.54431
2.03	3.61964
2.04	3.60188
2.05	3.56931
2.06	3.59595
2.07	3.62096
2.08	3.60089
2.09	3.55977
2.1	3.57622
2.11	3.58477
2.12	3.57852
2.13	3.57753
2.14	3.57786
2.15	3.58674
2.16	3.57523
2.17	3.57326
2.18	3.55648
2.19	3.5726
2.2	3.5953
2.21	3.58674
2.22	3.56602
2.23	3.59102
2.24	3.60648
2.25	3.55352
2.26	3.5772
2.27	3.59135
2.28	3.61635
2.29	3.59365
2.3	3.61306
2.31	3.57161
2.32	3.57194
2.33	3.57918
2.34	3.5976
2.35	3.58543
2.36	3.54398
2.37	3.5851
2.38	3.60023
2.39	3.57326
2.4	3.56207
2.41	3.55286
2.42	3.58576
2.43	3.54793
2.44	3.5953
2.45	3.55845
2.46	3.55747
2.47	3.56931
2.48	3.55747
2.49	3.55187
2.5	3.55714
2.51	3.57457
2.52	3.54891
2.53	3.53674
2.54	3.53181
2.55	3.55747
2.56	3.57424
2.57	3.54793
2.58	3.59727
2.59	3.56602
2.6	3.53279
2.61	3.5976
2.62	3.59497
2.63	3.54727
2.64	3.55483
2.65	3.54398
2.66	3.58181
2.67	3.55582
2.68	3.53839
2.69	3.55253
2.7	3.53016
2.71	3.57819
2.72	3.57523
2.73	3.54299
2.74	3.50911
2.75	3.50812
2.76	3.55056
2.77	3.57326
2.78	3.56372
2.79	3.55385
2.8	3.54793
2.81	3.52687
2.82	3.50812
2.83	3.51207
2.84	3.54168
2.85	3.55122
2.86	3.53411
2.87	3.55385
2.88	3.55483
2.89	3.55286
2.9	3.54826
2.91	3.57194
2.92	3.54135
2.93	3.56536
2.94	3.57062
2.95	3.56141
2.96	3.55122
2.97	3.56207
2.98	3.53148
2.99	3.55253
3	3.54135
3.01	3.53477
3.02	3.53279
3.03	3.54102
3.04	3.53444
3.05	3.5226
3.06	3.54003
3.07	3.55451
3.08	3.51766
3.09	3.52128
3.1	3.53181
3.11	3.53641
3.12	3.54661
3.13	3.54003
3.14	3.53477
3.15	3.54299
3.16	3.52654
3.17	3.55977
3.18	3.54891
3.19	3.54957
3.2	3.52556
3.21	3.5397
3.22	3.53214
3.23	3.51668
3.24	3.52523
3.25	3.52293
3.26	3.50911
3.27	3.55352
3.28	3.5397
3.29	3.54957
3.3	3.51536
3.31	3.53378
3.32	3.53082
3.33	3.55155
3.34	3.5226
3.35	3.49628
3.36	3.53378
3.37	3.52029
3.38	3.51799
3.39	3.54332
3.4	3.51075
3.41	3.52227
3.42	3.54497
3.43	3.54891
3.44	3.5249
3.45	3.53148
3.46	3.54036
3.47	3.50615
3.48	3.55911
3.49	3.51569
3.5	3.48444
3.51	3.53312
3.52	3.53345
3.53	3.46898
3.54	3.48707
3.55	3.54299
3.56	3.51174
3.57	3.4999
3.58	3.51766
3.59	3.50154
3.6	3.51503
3.61	3.51832
3.62	3.49069
3.63	3.49957
3.64	3.53543
3.65	3.51766
3.66	3.5147
3.67	3.50779
3.68	3.49792
3.69	3.5101
3.7	3.517
3.71	3.52819
3.72	3.47292
3.73	3.49661
3.74	3.51339
3.75	3.48674
3.76	3.49464
3.77	3.49792
3.78	3.50516
3.79	3.48806
3.8	3.48279
3.81	3.46667
3.82	3.48246
3.83	3.49858
3.84	3.46931
3.85	3.49332
3.86	3.51536
3.87	3.50549
3.88	3.50582
3.89	3.53608
3.9	3.51207
3.91	3.52391
3.92	3.50418
3.93	3.52556
3.94	3.52095
3.95	3.55977
3.96	3.52786
3.97	3.48115
3.98	3.5147
3.99	3.51766
4	3.51174
4.01	3.51141
4.02	3.52589
4.03	3.53707
4.04	3.50845
4.05	3.49957
4.06	3.51141
4.07	3.49266
4.08	3.49628
4.09	3.50253
4.1	3.48904
4.11	3.51108
4.12	3.49299
4.13	3.46371
4.14	3.52523
4.15	3.53773
4.16	3.49529
4.17	3.49036
4.18	3.46963
4.19	3.50319
4.2	3.49464
4.21	3.49628
4.22	3.4749
4.23	3.50714
4.24	3.50286
4.25	3.51898
4.26	3.51898
4.27	3.48213
4.28	3.46667
4.29	3.46996
4.3	3.50648
4.31	3.48411
4.32	3.48839
4.33	3.4897
4.34	3.50089
4.35	3.48148
4.36	3.47819
4.37	3.48773
4.38	3.47819
4.39	3.49496
4.4	3.47852
4.41	3.51503
4.42	3.4851
4.43	3.46733
4.44	3.4397
4.45	3.48806
4.46	3.48444
4.47	3.46832
4.48	3.5124
4.49	3.5045
4.5	3.4851
4.51	3.45845
4.52	3.47786
4.53	3.47556
4.54	3.45911
4.55	3.45944
4.56	3.47391
4.57	3.45615
4.58	3.44167
4.59	3.492
4.6	3.46865
4.61	3.45878
4.62	3.48937
4.63	3.48082
4.64	3.49464
4.65	3.46437
4.66	3.50023
4.67	3.49891
4.68	3.52654
4.69	3.51832
4.7	3.48871
4.71	3.48115
4.72	3.50582
4.73	3.50714
4.74	3.51832
4.75	3.49299
4.76	3.48839
4.77	3.45779
4.78	3.47227
4.79	3.47325
4.8	3.45023
4.81	3.50944
4.82	3.49102
4.83	3.47917
4.84	3.45352
4.85	3.49431
4.86	3.50418
4.87	3.47687
4.88	3.48674
4.89	3.49562
4.9	3.4874
4.91	3.48575
4.92	3.48148
4.93	3.46207
4.94	3.44595
4.95	3.46404
4.96	3.48049
4.97	3.46503
4.98	3.45154
4.99	3.46273
5	3.48246
5.01	3.4397
5.02	3.44562
5.03	3.46931
5.04	3.45812
5.05	3.44332
5.06	3.4397
5.07	3.44299
5.08	3.43805
5.09	3.45319
5.1	3.48246
5.11	3.46667
5.12	3.47325
5.13	3.49069
5.14	3.47391
5.15	3.45779
5.16	3.45977
5.17	3.43871
5.18	3.45746
5.19	3.45055
5.2	3.41865
5.21	3.43411
5.22	3.46667
5.23	3.46108
5.24	3.42259
5.25	3.42161
5.26	3.47917
5.27	3.45681
5.28	3.44792
5.29	3.47917
5.3	3.48378
5.31	3.47358
5.32	3.49957
5.33	3.50911
5.34	3.46634
5.35	3.45713
5.36	3.46174
5.37	3.5022
5.38	3.49069
5.39	3.44102
5.4	3.43345
5.41	3.47786
5.42	3.5022
5.43	3.46273
5.44	3.43608
5.45	3.46437
5.46	3.43937
5.47	3.46634
5.48	3.46996
5.49	3.45121
5.5	3.43049
5.51	3.47523
5.52	3.49365
5.53	3.47687
5.54	3.45812
5.55	3.46963
5.56	3.46898
5.57	3.45681
5.58	3.46898
5.59	3.467
5.6	3.44694
5.61	3.44496
5.62	3.48082
5.63	3.48806
5.64	3.4726
5.65	3.45812
5.66	3.43773
5.67	3.43707
5.68	3.47424
5.69	3.43904
5.7	3.44496
5.71	3.44727
5.72	3.46108
5.73	3.45055
5.74	3.44825
5.75	3.45187
5.76	3.41108
5.77	3.45483
5.78	3.44957
5.79	3.4545
5.8	3.42095
5.81	3.48411
5.82	3.44727
5.83	3.44891
5.84	3.46503
5.85	3.4295
5.86	3.42095
5.87	3.44661
5.88	3.43312
5.89	3.43937
5.9	3.46602
5.91	3.44891
5.92	3.43049
5.93	3.42687
5.94	3.46799
5.95	3.44102
5.96	3.43937
5.97	3.42851
5.98	3.45779
5.99	3.45483
6	3.47556
6.01	3.43509
6.02	3.48082
6.03	3.4522
6.04	3.46667
6.05	3.47457
6.06	3.467
6.07	3.46108
6.08	3.44924
6.09	3.40154
6.1	3.41174
6.11	3.44365
6.12	3.39726
6.13	3.40878
6.14	3.42325
6.15	3.44825
6.16	3.41371
6.17	3.41832
6.18	3.44463
6.19	3.44102
6.2	3.43444
6.21	3.43444
6.22	3.45582
6.23	3.45911
6.24	3.46667
6.25	3.45516
6.26	3.41601
6.27	3.4374
6.28	3.43476
6.29	3.43871
6.3	3.46404
6.31	3.44134
6.32	3.45023
6.33	3.42851
6.34	3.43411
6.35	3.44562
6.36	3.41503
6.37	3.45352
6.38	3.47095
6.39	3.42523
6.4	3.41569
6.41	3.42819
6.42	3.41766
6.43	3.45911
6.44	3.44661
6.45	3.43542
6.46	3.42621
6.47	3.45911
6.48	3.4647
6.49	3.4795
6.5	3.44825
6.51	3.45483
6.52	3.41404
6.53	3.43049
6.54	3.44496
6.55	3.42029
6.56	3.40878
6.57	3.42884
6.58	3.42983
6.59	3.42194
6.6	3.40944
6.61	3.4272
6.62	3.42358
6.63	3.42226
6.64	3.4249
6.65	3.42095
6.66	3.43838
6.67	3.46273
6.68	3.46075
6.69	3.45713
6.7	3.45681
6.71	3.40253
6.72	3.42391
6.73	3.46207
6.74	3.45384
6.75	3.41799
6.76	3.44233
6.77	3.46371
6.78	3.43608
6.79	3.41207
6.8	3.38641
6.81	3.41437
6.82	3.43805
6.83	3.44365
6.84	3.46371
6.85	3.45746
6.86	3.44233
6.87	3.42095
6.88	3.40812
6.89	3.43082
6.9	3.41108
6.91	3.39891
6.92	3.43148
6.93	3.44562
6.94	3.43082
6.95	3.41207
6.96	3.40647
6.97	3.37917
6.98	3.41009
6.99	3.42095
7	3.42753
7.01	3.43805
7.02	3.42819
7.03	3.36437
7.04	3.40318
7.05	3.43444
7.06	3.44102
7.07	3.40615
7.08	3.4193
7.09	3.39496
7.1	3.37325
7.11	3.39036
7.12	3.43082
7.13	3.38016
7.14	3.42391
7.15	3.43773
7.16	3.43082
7.17	3.41865
7.18	3.40055
7.19	3.39726
7.2	3.39266
7.21	3.43542
7.22	3.41569
7.23	3.42325
7.24	3.40187
7.25	3.39595
7.26	3.40812
7.27	3.41009
7.28	3.43411
7.29	3.44727
7.3	3.40845
7.31	3.40483
7.32	3.41174
7.33	3.4272
7.34	3.40516
7.35	3.41865
7.36	3.39825
7.37	3.40121
7.38	3.41865
7.39	3.45417
7.4	3.41437
7.41	3.4272
7.42	3.44398
7.43	3.41141
7.44	3.40582
7.45	3.38476
7.46	3.40187
7.47	3.40976
7.48	3.39101
7.49	3.39858
7.5	3.40812
7.51	3.39858
7.52	3.4318
7.53	3.43213
7.54	3.43805
7.55	3.40647
7.56	3.41174
7.57	3.4022
7.58	3.42062
7.59	3.40549
7.6	3.42095
7.61	3.42555
7.62	3.39299
7.63	3.40549
7.64	3.40483
7.65	3.36996
7.66	3.37753
7.67	3.42424
7.68	3.3874
7.69	3.37259
7.7	3.39661
7.71	3.41963
7.72	3.40713
7.73	3.40318
7.74	3.38411
7.75	3.4147
7.76	3.43904
7.77	3.43542
7.78	3.43312
7.79	3.37424
7.8	3.39529
7.81	3.37555
7.82	3.41009
7.83	3.40911
7.84	3.40647
7.85	3.39003
7.86	3.38871
7.87	3.42424
7.88	3.43345
7.89	3.42292
7.9	3.42555
7.91	3.39661
7.92	3.35417
7.93	3.39233
7.94	3.42226
7.95	3.39332
7.96	3.39693
7.97	3.44102
7.98	3.39036
7.99	3.39101
8	3.38476
8.01	3.3999
8.02	3.39036
8.03	3.4022
8.04	3.3943
8.05	3.40911
8.06	3.41536
8.07	3.39825
8.08	3.36042
8.09	3.35746
8.1	3.40483
8.11	3.3999
8.12	3.35384
8.13	3.37358
8.14	3.42358
8.15	3.38838
8.16	3.3795
8.17	3.38575
8.18	3.39628
8.19	3.36009
8.2	3.38016
8.21	3.38805
8.22	3.37654
8.23	3.35154
8.24	3.35088
8.25	3.39299
8.26	3.38279
8.27	3.38608
8.28	3.39661
8.29	3.39726
8.3	3.42457
8.31	3.37917
8.32	3.36568
8.33	3.41404
8.34	3.40516
8.35	3.37786
8.36	3.37786
8.37	3.37457
8.38	3.37489
8.39	3.40286
8.4	3.37884
8.41	3.39957
8.42	3.4022
8.43	3.40286
8.44	3.40944
8.45	3.38345
8.46	3.42128
8.47	3.38674
8.48	3.38114
8.49	3.37424
8.5	3.40154
8.51	3.39134
8.52	3.38378
8.53	3.38049
8.54	3.4045
8.55	3.40911
8.56	3.38345
8.57	3.40713
8.58	3.37917
8.59	3.40384
8.6	3.36864
8.61	3.39068
8.62	3.42128
8.63	3.40384
8.64	3.36239
8.65	3.39726
8.66	3.39661
8.67	3.38575
8.68	3.41108
8.69	3.36634
8.7	3.36832
8.71	3.36503
8.72	3.37851
8.73	3.37259
8.74	3.38805
8.75	3.37621
8.76	3.39463
8.77	3.35318
8.78	3.35187
8.79	3.39595
8.8	3.38082
8.81	3.34266
8.82	3.38114
8.83	3.40187
8.84	3.35516
8.85	3.36239
8.86	3.36108
8.87	3.35976
8.88	3.38707
8.89	3.39957
8.9	3.3772
8.91	3.36799
8.92	3.38707
8.93	3.38838
8.94	3.37786
8.95	3.37358
8.96	3.36141
8.97	3.39266
8.98	3.37983
8.99	3.3897
9	3.37226
9.01	3.36568
9.02	3.3591
9.03	3.35746
9.04	3.37457
9.05	3.39529
9.06	3.36305
9.07	3.39628
9.08	3.36568
9.09	3.36601
9.1	3.36338
9.11	3.37983
9.12	3.37391
9.13	3.37983
9.14	3.36503
9.15	3.37292
9.16	3.36371
9.17	3.36832
9.18	3.38871
9.19	3.37522
9.2	3.39562
9.21	3.3568
9.22	3.37161
9.23	3.41404
9.24	3.4022
9.25	3.36108
9.26	3.34956
9.27	3.35055
9.28	3.38674
9.29	3.35878
9.3	3.34891
9.31	3.36437
9.32	3.35976
9.33	3.36108
9.34	3.36568
9.35	3.39068
9.36	3.3897
9.37	3.3795
9.38	3.35318
9.39	3.32851
9.4	3.34628
9.41	3.3568
9.42	3.36766
9.43	3.36963
9.44	3.37161
9.45	3.36568
9.46	3.35121
9.47	3.34956
9.48	3.36634
9.49	3.36568
9.5	3.36667
9.51	3.37193
9.52	3.3818
9.53	3.38213
9.54	3.39397
9.55	3.38345
9.56	3.34628
9.57	3.39134
9.58	3.35121
9.59	3.37555
9.6	3.35121
9.61	3.36601
9.62	3.38575
9.63	3.35285
9.64	3.34858
9.65	3.37325
9.66	3.34331
9.67	3.41766
9.68	3.36963
9.69	3.40121
9.7	3.39233
9.71	3.35516
9.72	3.37424
9.73	3.3795
9.74	3.33706
9.75	3.36733
9.76	3.37226
9.77	3.3466
9.78	3.34397
9.79	3.34891
9.8	3.37522
9.81	3.37391
9.82	3.36503
9.83	3.34496
9.84	3.35516
9.85	3.37687
9.86	3.35647
9.87	3.35516
9.88	3.34924
9.89	3.39792
9.9	3.3795
9.91	3.35943
9.92	3.37851
9.93	3.35779
9.94	3.36832
9.95	3.39825
9.96	3.38082
9.97	3.36141
9.98	3.37522
9.99	3.39397
10	3.35417
10.01	3.37062
10.02	3.38904
10.03	3.37621
10.04	3.36535
10.05	3.34924
10.06	3.34628
10.07	3.37818
10.08	3.37522
10.09	3.39068
10.1	3.34364
10.11	3.39529
10.12	3.37983
10.13	3.3568
10.14	3.36503
10.15	3.35549
10.16	3.36634
10.17	3.38707
10.18	3.392
10.19	3.37062
10.2	3.36338
10.21	3.342
10.22	3.35516
10.23	3.37687
10.24	3.36568
10.25	3.36207
10.26	3.30779
10.27	3.33213
10.28	3.34463
10.29	3.36174
10.3	3.33443
10.31	3.35417
10.32	3.36996
10.33	3.36207
10.34	3.36634
10.35	3.36799
10.36	3.33772
10.37	3.35253
10.38	3.34825
10.39	3.35022
10.4	3.34233
10.41	3.35647
10.42	3.33641
10.43	3.32917
10.44	3.33575
10.45	3.36963
10.46	3.37226
10.47	3.37424
10.48	3.34792
10.49	3.38411
10.5	3.37522
10.51	3.34693
10.52	3.33805
10.53	3.33641
10.54	3.35976
10.55	3.34858
10.56	3.33345
10.57	3.35285
10.58	3.37292
10.59	3.35055
10.6	3.31075
10.61	3.36634
10.62	3.33706
10.63	3.33279
10.64	3.32522
10.65	3.35351
10.66	3.3341
10.67	3.39299
10.68	3.35121
10.69	3.31996
10.7	3.33345
10.71	3.37259
10.72	3.32588
10.73	3.36075
10.74	3.34825
10.75	3.35878
10.76	3.34891
10.77	3.36239
10.78	3.34726
10.79	3.34035
10.8	3.3522
10.81	3.3647
10.82	3.38312
10.83	3.34858
10.84	3.3568
10.85	3.3341
10.86	3.367
10.87	3.39463
10.88	3.35384
10.89	3.35845
10.9	3.36799
10.91	3.35812
10.92	3.35088
10.93	3.34562
10.94	3.34792
10.95	3.33476
10.96	3.3522
10.97	3.36009
10.98	3.36075
10.99	3.37292
11	3.36799
11.01	3.33641
11.02	3.33345
11.03	3.34463
11.04	3.3272
11.05	3.37095
11.06	3.36503
11.07	3.38871
11.08	3.36371
11.09	3.33345
11.1	3.34891
11.11	3.37983
11.12	3.37259
11.13	3.33706
11.14	3.34003
11.15	3.34726
11.16	3.35055
11.17	3.35022
11.18	3.37621
11.19	3.38542
11.2	3.34167
11.21	3.3216
11.22	3.3216
11.23	3.31831
11.24	3.33542
11.25	3.33608
11.26	3.37917
11.27	3.35253
11.28	3.32325
11.29	3.34397
11.3	3.33838
11.31	3.32752
11.32	3.31404
11.33	3.30187
11.34	3.32062
11.35	3.32522
11.36	3.32391
11.37	3.34529
11.38	3.34924
11.39	3.30384
11.4	3.31272
11.41	3.34562
11.42	3.34167
11.43	3.35582
11.44	3.33279
11.45	3.33937
11.46	3.32391
11.47	3.34167
11.48	3.34924
11.49	3.34595
11.5	3.34299
11.51	3.34891
11.52	3.31667
11.53	3.33575
11.54	3.36766
11.55	3.34858
11.56	3.35516
11.57	3.38378
11.58	3.35878
11.59	3.35713
11.6	3.3341
11.61	3.34956
11.62	3.31766
11.63	3.32358
11.64	3.3397
11.65	3.33641
11.66	3.34463
11.67	3.31075
11.68	3.3341
11.69	3.36141
11.7	3.35746
11.71	3.34364
11.72	3.34726
11.73	3.33904
11.74	3.33443
11.75	3.32917
11.76	3.36075
11.77	3.33049
11.78	3.34562
11.79	3.34529
11.8	3.33575
11.81	3.31108
11.82	3.33476
11.83	3.34463
11.84	3.3216
11.85	3.32522
11.86	3.32095
11.87	3.32752
11.88	3.34299
11.89	3.3341
11.9	3.35121
11.91	3.33345
11.92	3.33509
11.93	3.32095
11.94	3.34463
11.95	3.35483
11.96	3.30812
11.97	3.31239
11.98	3.31535
11.99	3.33805
12	3.37062
12.01	3.342
12.02	3.36437
12.03	3.34134
12.04	3.33575
12.05	3.31601
12.06	3.31864
12.07	3.33345
12.08	3.34825
12.09	3.3091
12.1	3.34299
12.11	3.32818
12.12	3.3397
12.13	3.34101
12.14	3.32522
12.15	3.3147
12.16	3.35976
12.17	3.32917
12.18	3.35351
12.19	3.34956
12.2	3.32424
12.21	3.27983
12.22	3.32325
12.23	3.34891
12.24	3.34397
12.25	3.31272
12.26	3.30351
12.27	3.31733
12.28	3.30252
12.29	3.31766
12.3	3.30187
12.31	3.32226
12.32	3.33904
12.33	3.3193
12.34	3.32226
12.35	3.35253
12.36	3.33904
12.37	3.30187
12.38	3.34101
12.39	3.35582
12.4	3.30976
12.41	3.2841
12.42	3.31272
12.43	3.33871
12.44	3.31996
12.45	3.3522
12.46	3.3397
12.47	3.32489
12.48	3.3272
12.49	3.35154
12.5	3.30614
12.51	3.31667
12.52	3.31996
12.53	3.32522
12.54	3.30548
12.55	3.34331
12.56	3.34562
12.57	3.30285
12.58	3.31502
12.59	3.33213
12.6	3.317
12.61	3.31766
12.62	3.27588
12.63	3.28312
12.64	3.32259
12.65	3.30976
12.66	3.30812
12.67	3.31206
12.68	3.33345
12.69	3.32522
12.7	3.35022
12.71	3.32654
12.72	3.30877
12.73	3.30614
12.74	3.28114
12.75	3.30779
12.76	3.33049
12.77	3.35779
12.78	3.31766
12.79	3.30548
12.8	3.29529
12.81	3.31502
12.82	3.34628
12.83	3.34364
12.84	3.36864
12.85	3.38049
12.86	3.342
12.87	3.34595
12.88	3.36503
12.89	3.3091
12.9	3.29463
12.91	3.30943
12.92	3.35351
12.93	3.35121
12.94	3.31897
12.95	3.34266
12.96	3.35253
12.97	3.30516
12.98	3.31173
12.99	3.30877
13	3.30812
13.01	3.31009
13.02	3.33871
13.03	3.33246
13.04	3.36207
13.05	3.33542
13.06	3.28476
13.07	3.31042
13.08	3.31108
13.09	3.3295
13.1	3.31601
13.11	3.32752
13.12	3.3091
13.13	3.292
13.14	3.29496
13.15	3.31239
13.16	3.33147
13.17	3.32917
13.18	3.33246
13.19	3.31173
13.2	3.31535
13.21	3.31305
13.22	3.32226
13.23	3.29101
13.24	3.30614
13.25	3.33509
13.26	3.36174
13.27	3.2943
13.28	3.32851
13.29	3.33838
13.3	3.32489
13.31	3.33509
13.32	3.31667
13.33	3.29792
13.34	3.34331
13.35	3.34266
13.36	3.29989
13.37	3.30943
13.38	3.31437
13.39	3.31141
13.4	3.32752
13.41	3.30121
13.42	3.33377
13.43	3.30845
13.44	3.32062
13.45	3.34134
13.46	3.34134
13.47	3.31733
13.48	3.31173
13.49	3.31831
13.5	3.30812
13.51	3.3272
13.52	3.35351
13.53	3.3068
13.54	3.31733
13.55	3.31831
13.56	3.32818
13.57	3.31173
13.58	3.32588
13.59	3.32424
13.6	3.317
13.61	3.30614
13.62	3.34134
13.63	3.29266
13.64	3.30845
13.65	3.32292
13.66	3.29134
13.67	3.33345
13.68	3.33213
13.69	3.33509
13.7	3.31272
13.71	3.29792
13.72	3.3272
13.73	3.32785
13.74	3.33279
13.75	3.32127
13.76	3.30877
13.77	3.3147
13.78	3.29891
13.79	3.3272
13.8	3.32752
13.81	3.32654
13.82	3.3091
13.83	3.33312
13.84	3.29792
13.85	3.30384
13.86	3.3091
13.87	3.30647
13.88	3.29397
13.89	3.3466
13.9	3.31568
13.91	3.30417
13.92	3.31272
13.93	3.3091
13.94	3.29101
13.95	3.30845
13.96	3.27061
13.97	3.31667
13.98	3.34858
13.99	3.33377
14	3.27423
14.01	3.30088
14.02	3.29693
14.03	3.2841
14.04	3.30647
14.05	3.31272
14.06	3.32391
14.07	3.34759
14.08	3.31173
14.09	3.33213
14.1	3.31634
14.11	3.3272
14.12	3.31963
14.13	3.31042
14.14	3.31535
14.15	3.28772
14.16	3.33279
14.17	3.32522
14.18	3.28575
14.19	3.32292
14.2	3.35647
14.21	3.31502
14.22	3.30976
14.23	3.29792
14.24	3.33443
14.25	3.32226
14.26	3.29594
14.27	3.31437
14.28	3.32424
14.29	3.30022
14.3	3.30187
14.31	3.29989
14.32	3.33147
14.33	3.30943
14.34	3.35285
14.35	3.34364
14.36	3.35417
14.37	3.31996
14.38	3.34003
14.39	3.3091
14.4	3.30088
14.41	3.32588
14.42	3.33377
14.43	3.33081
14.44	3.3522
14.45	3.33937
14.46	3.31239
14.47	3.31338
14.48	3.29364
14.49	3.33772
14.5	3.32259
14.51	3.32424
14.52	3.33838
14.53	3.30088
14.54	3.28575
14.55	3.28344
14.56	3.31338
14.57	3.28838
14.58	3.31535
14.59	3.33016
14.6	3.3216
14.61	3.28706
14.62	3.30713
14.63	3.31667
14.64	3.31009
14.65	3.3272
14.66	3.29397
14.67	3.34529
14.68	3.33509
14.69	3.27983
14.7	3.28213
14.71	3.30318
14.72	3.2966
14.73	3.29989
14.74	3.27983
14.75	3.31798
14.76	3.31535
14.77	3.26239
14.78	3.29331
14.79	3.3193
14.8	3.31371
14.81	3.32325
14.82	3.30614
14.83	3.33377
14.84	3.33739
14.85	3.32358
14.86	3.30713
14.87	3.30548
14.88	3.28114
14.89	3.27785
14.9	3.29397
14.91	3.32818
14.92	3.29496
14.93	3.31108
14.94	3.29627
14.95	3.27654
14.96	3.30877
14.97	3.30121
14.98	3.29825
14.99	3.31272
15	3.33476
15.01	3.34956
15.02	3.31667
15.03	3.29693
15.04	3.31042
15.05	3.32456
15.06	3.29298
15.07	3.31305
15.08	3.32358
15.09	3.33049
15.1	3.31206
15.11	3.30022
15.12	3.31963
15.13	3.31502
15.14	3.34003
15.15	3.33509
15.16	3.29825
15.17	3.29956
15.18	3.30581
15.19	3.29002
15.2	3.30779
15.21	3.32062
15.22	3.26634
15.23	3.30516
15.24	3.32259
15.25	3.31963
15.26	3.32456
15.27	3.32818
15.28	3.29726
15.29	3.30088
15.3	3.31601
15.31	3.29726
15.32	3.31173
15.33	3.28015
15.34	3.29594
15.35	3.28443
15.36	3.31108
15.37	3.30252
15.38	3.29726
15.39	3.27292
15.4	3.32358
15.41	3.29134
15.42	3.28509
15.43	3.31634
15.44	3.29101
15.45	3.34167
15.46	3.29397
15.47	3.34035
15.48	3.36042
15.49	3.34726
15.5	3.28213
15.51	3.29956
15.52	3.3216
15.53	3.3397
15.54	3.31831
15.55	3.31502
15.56	3.27752
15.57	3.30351
15.58	3.31437
15.59	3.31535
15.6	3.29923
15.61	3.33443
15.62	3.28312
15.63	3.28969
15.64	3.32555
15.65	3.28739
15.66	3.31831
15.67	3.3091
15.68	3.30614
15.69	3.31798
15.7	3.31141
15.71	3.31206
15.72	3.29562
15.73	3.2591
15.74	3.28904
15.75	3.29298
15.76	3.31568
15.77	3.29496
15.78	3.2966
15.79	3.30845
15.8	3.31173
15.81	3.32029
15.82	3.28739
15.83	3.27785
15.84	3.27489
15.85	3.29035
15.86	3.27917
15.87	3.29989
15.88	3.27983
15.89	3.30318
15.9	3.30384
15.91	3.29923
15.92	3.26469
15.93	3.28575
15.94	3.31141
15.95	3.2693
15.96	3.30384
15.97	3.29035
15.98	3.28805
15.99	3.29002
16	3.26897
16.01	3.30845
16.02	3.32522
16.03	3.27752
16.04	3.292
16.05	3.31141
16.06	3.32588
16.07	3.32456
16.08	3.29134
16.09	3.2795
16.1	3.32884
16.11	3.33049
16.12	3.27094
16.13	3.28443
16.14	3.30548
16.15	3.30318
16.16	3.29858
16.17	3.32555
16.18	3.31141
16.19	3.28904
16.2	3.30318
16.21	3.30779
16.22	3.30055
16.23	3.30252
16.24	3.29792
16.25	3.292
16.26	3.28344
16.27	3.29035
16.28	3.28048
16.29	3.30154
16.3	3.33443
16.31	3.34397
16.32	3.31864
16.33	3.33509
16.34	3.27752
16.35	3.28081
16.36	3.32522
16.37	3.34233
16.38	3.31305
16.39	3.30812
16.4	3.28871
16.41	3.31568
16.42	3.29233
16.43	3.292
16.44	3.29891
16.45	3.30647
16.46	3.30483
16.47	3.28344
16.48	3.30121
16.49	3.2795
16.5	3.29298
16.51	3.28542
16.52	3.28937
16.53	3.30581
16.54	3.32687
16.55	3.28048
16.56	3.29792
16.57	3.31009
16.58	3.29792
16.59	3.28246
16.6	3.28476
16.61	3.32325
16.62	3.31338
16.63	3.29792
16.64	3.30713
16.65	3.28312
16.66	3.26469
16.67	3.27621
16.68	3.28575
16.69	3.30845
16.7	3.30121
16.71	3.30845
16.72	3.29331
16.73	3.28871
16.74	3.31963
16.75	3.29298
16.76	3.29035
16.77	3.29331
16.78	3.28147
16.79	3.30351
16.8	3.32983
16.81	3.30318
16.82	3.30483
16.83	3.2943
16.84	3.2818
16.85	3.32292
16.86	3.28739
16.87	3.29233
16.88	3.28476
16.89	3.29266
16.9	3.27456
16.91	3.30088
16.92	3.28213
16.93	3.28344
16.94	3.29331
16.95	3.2795
16.96	3.26733
16.97	3.2966
16.98	3.27983
16.99	3.31272
17	3.27127
17.01	3.29726
17.02	3.26568
17.03	3.32917
17.04	3.30022
17.05	3.27818
17.06	3.29364
17.07	3.30318
17.08	3.31371
17.09	3.292
17.1	3.28937
17.11	3.31042
17.12	3.29167
17.13	3.31042
17.14	3.30516
17.15	3.27917
17.16	3.27094
17.17	3.31502
17.18	3.35647
17.19	3.35253
17.2	3.29693
17.21	3.27489
17.22	3.30516
17.23	3.30088
17.24	3.26996
17.25	3.29923
17.26	3.31141
17.27	3.31141
17.28	3.30976
17.29	3.29627
17.3	3.34101
17.31	3.29331
17.32	3.29529
17.33	3.29167
17.34	3.28706
17.35	3.32029
17.36	3.2864
17.37	3.2966
17.38	3.32851
17.39	3.29233
17.4	3.31798
17.41	3.28443
17.42	3.27094
17.43	3.28081
17.44	3.27851
17.45	3.29101
17.46	3.30351
17.47	3.29233
17.48	3.27456
17.49	3.30187
17.5	3.31206
17.51	3.30647
17.52	3.33377
17.53	3.28904
17.54	3.27358
17.55	3.28213
17.56	3.27555
17.57	3.32259
17.58	3.27851
17.59	3.28081
17.6	3.29233
17.61	3.29233
17.62	3.28608
17.63	3.31272
17.64	3.30548
17.65	3.27917
17.66	3.29693
17.67	3.28312
17.68	3.27884
17.69	3.30746
17.7	3.30219
17.71	3.31239
17.72	3.30154
17.73	3.28015
17.74	3.29594
17.75	3.29101
17.76	3.29101
17.77	3.2568
17.78	3.24232
17.79	3.27522
17.8	3.29167
17.81	3.30088
17.82	3.26765
17.83	3.25022
17.84	3.29562
17.85	3.29989
17.86	3.29134
17.87	3.28344
17.88	3.30088
17.89	3.29726
17.9	3.29627
17.91	3.31601
17.92	3.32292
17.93	3.26667
17.94	3.29825
17.95	3.29825
17.96	3.31206
17.97	3.28937
17.98	3.29891
17.99	3.31897
18	3.29002
18.01	3.27983
18.02	3.29266
18.03	3.28114
18.04	3.31075
18.05	3.28937
18.06	3.30022
18.07	3.29134
18.08	3.28542
18.09	3.29956
18.1	3.25811
18.11	3.25482
18.12	3.26009
18.13	3.29331
18.14	3.3272
18.15	3.28673
18.16	3.30581
18.17	3.30055
18.18	3.30877
18.19	3.3091
18.2	3.29989
18.21	3.29068
18.22	3.26798
18.23	3.28673
18.24	3.27884
18.25	3.29693
18.26	3.31272
18.27	3.29134
18.28	3.26897
18.29	3.28213
18.3	3.28377
18.31	3.27423
18.32	3.28937
18.33	3.31075
18.34	3.31042
18.35	3.32424
18.36	3.24956
18.37	3.27259
18.38	3.32127
18.39	3.30746
18.4	3.28344
18.41	3.27818
18.42	3.28805
18.43	3.26897
18.44	3.2818
18.45	3.29364
18.46	3.28608
18.47	3.28246
18.48	3.29266
18.49	3.34068
18.5	3.28969
18.51	3.267
18.52	3.29496
18.53	3.27884
18.54	3.27752
18.55	3.27456
18.56	3.32555
18.57	3.30877
18.58	3.30121
18.59	3.29496
18.6	3.30516
18.61	3.27851
18.62	3.25614
18.63	3.29331
18.64	3.29233
18.65	3.27226
18.66	3.30055
18.67	3.26963
18.68	3.28838
18.69	3.30581
18.7	3.29266
18.71	3.29266
18.72	3.2966
18.73	3.31371
18.74	3.27917
18.75	3.29233
18.76	3.29397
18.77	3.25285
18.78	3.26173
18.79	3.27654
18.8	3.26535
18.81	3.2818
18.82	3.30154
18.83	3.30154
18.84	3.27983
18.85	3.27983
18.86	3.27555
18.87	3.29759
18.88	3.29529
18.89	3.28476
18.9	3.28147
18.91	3.29858
18.92	3.2943
18.93	3.3045
18.94	3.29266
18.95	3.25548
18.96	3.27456
18.97	3.26831
18.98	3.27489
18.99	3.27917
19	3.27917
19.01	3.29101
19.02	3.30154
19.03	3.29331
19.04	3.28081
19.05	3.30845
19.06	3.2591
19.07	3.2841
19.08	3.26667
19.09	3.2943
19.1	3.30055
19.11	3.29134
19.12	3.29266
19.13	3.2693
19.14	3.28048
19.15	3.30022
19.16	3.29594
19.17	3.29298
19.18	3.28805
19.19	3.31371
19.2	3.29792
19.21	3.28344
19.22	3.29496
19.23	3.30219
19.24	3.30252
19.25	3.28575
19.26	3.26206
19.27	3.31831
19.28	3.33049
19.29	3.32621
19.3	3.28871
19.31	3.28147
19.32	3.29463
19.33	3.28213
19.34	3.32325
19.35	3.27884
19.36	3.28772
19.37	3.28048
19.38	3.27719
19.39	3.27851
19.4	3.30121
19.41	3.27489
19.42	3.28147
19.43	3.29068
19.44	3.26798
19.45	3.27061
19.46	3.26864
19.47	3.30647
19.48	3.28706
19.49	3.31042
19.5	3.28147
19.51	3.27983
19.52	3.27358
19.53	3.32193
19.54	3.28772
19.55	3.27423
19.56	3.25055
19.57	3.242
19.58	3.26173
19.59	3.28312
19.6	3.31042
19.61	3.29956
19.62	3.29068
19.63	3.30088
19.64	3.28081
19.65	3.27785
19.66	3.29134
19.67	3.27292
19.68	3.27061
19.69	3.31963
19.7	3.3045
19.71	3.26502
19.72	3.24594
19.73	3.30845
19.74	3.29298
19.75	3.29956
19.76	3.28048
19.77	3.28443
19.78	3.26272
19.79	3.28015
19.8	3.2716
19.81	3.25614
19.82	3.29858
19.83	3.31371
19.84	3.29035
19.85	3.27851
19.86	3.26996
19.87	3.29496
19.88	3.25976
19.89	3.25252
19.9	3.26996
19.91	3.2795
19.92	3.30483
19.93	3.26535
19.94	3.26305
19.95	3.28706
19.96	3.27358
19.97	3.30483
19.98	3.24265
19.99	3.26765
20	3.28312
20.01	3.27785
20.02	3.2943
20.03	3.24561
20.04	3.25713
20.05	3.27654
20.06	3.30219
20.07	3.28344
20.08	3.2614
20.09	3.26667
20.1	3.30285
20.11	3.26733
20.12	3.31798
20.13	3.27094
20.14	3.23706
20.15	3.24561
20.16	3.2239
20.17	3.26042
20.18	3.29956
20.19	3.24035
20.2	3.26108
20.21	3.26173
20.22	3.29693
20.23	3.2795
20.24	3.28509
20.25	3.28969
20.26	3.27621
20.27	3.30318
20.28	3.28312
20.29	3.28969
20.3	3.26667
20.31	3.24101
20.32	3.25088
20.33	3.29463
20.34	3.27654
20.35	3.25548
20.36	3.25088
20.37	3.26996
20.38	3.24594
20.39	3.29496
20.4	3.28048
20.41	3.28509
20.42	3.27127
20.43	3.28015
20.44	3.26996
20.45	3.2841
20.46	3.29101
20.47	3.27555
20.48	3.28344
20.49	3.29989
20.5	3.28706
20.51	3.25877
20.52	3.27292
20.53	3.27423
20.54	3.30647
20.55	3.29298
20.56	3.28081
20.57	3.26996
20.58	3.26371
20.59	3.27983
20.6	3.31535
20.61	3.29035
20.62	3.27358
20.63	3.2693
20.64	3.26568
20.65	3.25088
20.66	3.28377
20.67	3.29397
20.68	3.30877
20.69	3.28509
20.7	3.28312
20.71	3.24857
20.72	3.25154
20.73	3.26173
20.74	3.2739
20.75	3.25055
20.76	3.23344
20.77	3.24989
20.78	3.267
20.79	3.27917
20.8	3.2841
20.81	3.30483
20.82	3.24397
20.83	3.25252
20.84	3.28377
20.85	3.29529
20.86	3.27917
20.87	3.31272
20.88	3.30812
20.89	3.24825
20.9	3.24759
20.91	3.27061
20.92	3.25581
20.93	3.24463
20.94	3.22785
20.95	3.27456
20.96	3.29858
20.97	3.25351
20.98	3.27456
20.99	3.30812
21	3.2716
21.01	3.25647
21.02	3.25647
21.03	3.29134
21.04	3.27193
21.05	3.28838
21.06	3.2739
21.07	3.28969
21.08	3.29002
21.09	3.25844
21.1	3.2341
21.11	3.26765
21.12	3.26009
21.13	3.27654
21.14	3.27851
21.15	3.30154
21.16	3.28015
21.17	3.26634
21.18	3.29726
21.19	3.30516
21.2	3.26009
21.21	3.30022
21.22	3.2966
21.23	3.27325
21.24	3.26765
21.25	3.27851
21.26	3.25943
21.27	3.26239
21.28	3.24463
21.29	3.26075
21.3	3.25844
21.31	3.25055
21.32	3.28542
21.33	3.27423
21.34	3.25844
21.35	3.25746
21.36	3.26404
21.37	3.23706
21.38	3.26469
21.39	3.28213
21.4	3.27588
21.41	3.27654
21.42	3.30384
21.43	3.30548
21.44	3.29134
21.45	3.26667
21.46	3.26568
21.47	3.26108
21.48	3.26963
21.49	3.27061
21.5	3.24529
21.51	3.22522
21.52	3.29233
21.53	3.26272
21.54	3.24594
21.55	3.26963
21.56	3.3147
21.57	3.26897
21.58	3.28871
21.59	3.28805
21.6	3.28312
21.61	3.28871
21.62	3.26108
21.63	3.26634
21.64	3.30779
21.65	3.25581
21.66	3.24002
21.67	3.25055
21.68	3.27851
21.69	3.29693
21.7	3.27061
21.71	3.27358
21.72	3.23246
21.73	3.27226
21.74	3.26996
21.75	3.27818
21.76	3.22588
21.77	3.22423
21.78	3.2489
21.79	3.28969
21.8	3.27358
21.81	3.29891
21.82	3.25779
21.83	3.28805
21.84	3.28312
21.85	3.2943
21.86	3.31042
21.87	3.25614
21.88	3.25647
21.89	3.2943
21.9	3.29693
21.91	3.26305
21.92	3.26667
21.93	3.27884
21.94	3.26338
21.95	3.28015
21.96	3.27193
21.97	3.23311
21.98	3.25318
21.99	3.25779
22	3.26338
22.01	3.23048
22.02	3.25877
22.03	3.26634
22.04	3.30483
22.05	3.24726
22.06	3.28476
22.07	3.26733
22.08	3.27325
22.09	3.30055
22.1	3.30219
22.11	3.29627
22.12	3.28246
22.13	3.25515
22.14	3.25351
22.15	3.27094
22.16	3.29496
22.17	3.23311
22.18	3.2114
22.19	3.24134
22.2	3.25548
22.21	3.24857
22.22	3.26173
22.23	3.26009
22.24	3.2466
22.25	3.27555
22.26	3.25779
22.27	3.2693
22.28	3.26798
22.29	3.29101
22.3	3.29167
22.31	3.26206
22.32	3.25417
22.33	3.24923
22.34	3.27226
22.35	3.28673
22.36	3.30055
22.37	3.28048
22.38	3.26601
22.39	3.2341
22.4	3.25252
22.41	3.2443
22.42	3.26108
22.43	3.267
22.44	3.24265
22.45	3.25943
22.46	3.28015
22.47	3.28377
22.48	3.27489
22.49	3.26371
22.5	3.29331
22.51	3.29496
22.52	3.27029
22.53	3.25351
22.54	3.25384
22.55	3.26009
22.56	3.25318
22.57	3.26042
22.58	3.28673
22.59	3.25417
22.6	3.267
22.61	3.31634
22.62	3.30483
22.63	3.29726
22.64	3.2943
22.65	3.26535
22.66	3.2489
22.67	3.27687
22.68	3.28114
22.69	3.27621
22.7	3.27193
22.71	3.24956
22.72	3.26272
22.73	3.2841
22.74	3.26404
22.75	3.267
22.76	3.25976
22.77	3.26436
22.78	3.23739
22.79	3.24956
22.8	3.26963
22.81	3.25779
22.82	3.28213
22.83	3.2591
22.84	3.24496
22.85	3.28114
22.86	3.27193
22.87	3.28542
22.88	3.3068
22.89	3.26239
22.9	3.26338
22.91	3.25088
22.92	3.27358
22.93	3.27687
22.94	3.2795
22.95	3.27555
22.96	3.2716
22.97	3.24792
22.98	3.2466
22.99	3.26469
23	3.2795
23.01	3.26173
23.02	3.26864
23.03	3.27292
23.04	3.27423
23.05	3.26305
23.06	3.26042
23.07	3.27818
23.08	3.25943
23.09	3.26798
23.1	3.28279
23.11	3.24956
23.12	3.23213
23.13	3.27785
23.14	3.26108
23.15	3.25252
23.16	3.28772
23.17	3.2739
23.18	3.28805
23.19	3.25713
23.2	3.28476
23.21	3.25844
23.22	3.22686
23.23	3.24035
23.24	3.2568
23.25	3.29331
23.26	3.27851
23.27	3.24792
23.28	3.2693
23.29	3.2591
23.3	3.28147
23.31	3.27884
23.32	3.25647
23.33	3.27654
23.34	3.26239
23.35	3.27029
23.36	3.27917
23.37	3.27522
23.38	3.2693
23.39	3.31305
23.4	3.29134
23.41	3.29529
23.42	3.27983
23.43	3.28312
23.44	3.28048
23.45	3.28015
23.46	3.25515
23.47	3.22917
23.48	3.24364
23.49	3.25285
23.5	3.26864
23.51	3.29002
23.52	3.27851
23.53	3.26963
23.54	3.25482
23.55	3.25154
23.56	3.25515
23.57	3.2614
23.58	3.26009
23.59	3.28805
23.6	3.25482
23.61	3.24594
23.62	3.2864
23.63	3.2489
23.64	3.24759
23.65	3.26831
23.66	3.27061
23.67	3.26108
23.68	3.26601
23.69	3.28246
23.7	3.26042
23.71	3.28147
23.72	3.24529
23.73	3.23311
23.74	3.27555
23.75	3.27259
23.76	3.27193
23.77	3.2795
23.78	3.22851
23.79	3.23607
23.8	3.25186
23.81	3.27719
23.82	3.242
23.83	3.25384
23.84	3.29496
23.85	3.28476
23.86	3.23772
23.87	3.28575
23.88	3.292
23.89	3.24956
23.9	3.25515
23.91	3.23443
23.92	3.27522
23.93	3.26305
23.94	3.26634
23.95	3.28344
23.96	3.2443
23.97	3.28377
23.98	3.28081
23.99	3.25548
24	3.20713
24.01	3.28904
24.02	3.242
24.03	3.25022
24.04	3.26667
24.05	3.22357
24.06	3.24101
24.07	3.25384
24.08	3.2841
24.09	3.29496
24.1	3.27456
24.11	3.28739
24.12	3.30746
24.13	3.26535
24.14	3.28739
24.15	3.25318
24.16	3.25186
24.17	3.26568
24.18	3.25318
24.19	3.26009
24.2	3.26075
24.21	3.25351
24.22	3.26042
24.23	3.2591
24.24	3.30187
24.25	3.24561
24.26	3.28673
24.27	3.26502
24.28	3.25088
24.29	3.27719
24.3	3.26601
24.31	3.25877
24.32	3.27259
24.33	3.28344
24.34	3.28772
24.35	3.24923
24.36	3.22653
24.37	3.24134
24.38	3.2591
24.39	3.25154
24.4	3.2841
24.41	3.27851
24.42	3.25088
24.43	3.27292
24.44	3.26963
24.45	3.26535
24.46	3.24331
24.47	3.26338
24.48	3.27555
24.49	3.27094
24.5	3.21272
24.51	3.2545
24.52	3.24134
24.53	3.25252
24.54	3.25088
24.55	3.21239
24.56	3.25318
24.57	3.26765
24.58	3.28673
24.59	3.27983
24.6	3.21568
24.61	3.26404
24.62	3.24463
24.63	3.22621
24.64	3.22621
24.65	3.2795
24.66	3.26601
24.67	3.28246
24.68	3.30417
24.69	3.27851
24.7	3.27193
24.71	3.2818
24.72	3.3147
24.73	3.24726
24.74	3.28937
24.75	3.25713
24.76	3.23246
24.77	3.23344
24.78	3.25121
24.79	3.28048
24.8	3.26897
24.81	3.23903
24.82	3.22588
24.83	3.25219
24.84	3.26075
24.85	3.26075
24.86	3.26338
24.87	3.25154
24.88	3.24397
24.89	3.26239
24.9	3.24857
24.91	3.27292
24.92	3.27851
24.93	3.29529
24.94	3.2864
24.95	3.23509
24.96	3.25482
24.97	3.28048
24.98	3.26305
24.99	3.26305
25	3.25186
25.01	3.24989
25.02	3.24627
25.03	3.26733
25.04	3.2693
25.05	3.26667
25.06	3.24167
25.07	3.27127
25.08	3.25482
25.09	3.29496
25.1	3.26963
25.11	3.2443
25.12	3.24364
25.13	3.27061
25.14	3.25976
25.15	3.27094
25.16	3.29331
25.17	3.2545
25.18	3.24265
25.19	3.24364
25.2	3.29364
25.21	3.2466
25.22	3.2591
25.23	3.29035
25.24	3.27358
25.25	3.24759
25.26	3.26634
25.27	3.26996
25.28	3.27785
25.29	3.29331
25.3	3.2614
25.31	3.25417
25.32	3.26042
25.33	3.25713
25.34	3.25186
25.35	3.27193
25.36	3.25877
25.37	3.2568
25.38	3.24923
25.39	3.22028
25.4	3.26601
25.41	3.27851
25.42	3.26502
25.43	3.27621
25.44	3.29397
25.45	3.25252
25.46	3.21535
25.47	3.24857
25.48	3.25055
25.49	3.25877
25.5	3.25943
25.51	3.27917
25.52	3.25779
25.53	3.28937
25.54	3.3068
25.55	3.27292
25.56	3.28542
25.57	3.24989
25.58	3.28048
25.59	3.28213
25.6	3.25482
25.61	3.25811
25.62	3.2364
25.63	3.27719
25.64	3.26042
25.65	3.26864
25.66	3.27292
25.67	3.26535
25.68	3.27719
25.69	3.29397
25.7	3.2364
25.71	3.22982
25.72	3.26733
25.73	3.25088
25.74	3.26206
25.75	3.2341
25.76	3.22555
25.77	3.2341
25.78	3.26042
25.79	3.28048
25.8	3.27522
25.81	3.25779
25.82	3.24561
25.83	3.23871
25.84	3.2364
25.85	3.26009
25.86	3.23377
25.87	3.22555
25.88	3.26009
25.89	3.25515
25.9	3.26075
25.91	3.21009
25.92	3.2216
25.93	3.22982
25.94	3.2239
25.95	3.24627
25.96	3.25186
25.97	3.27917
25.98	3.23476
25.99	3.27325
26	3.22621
26.01	3.27522
26.02	3.23871
26.03	3.25384
26.04	3.26733
26.05	3.20943
26.06	3.23015
26.07	3.2364
26.08	3.24496
26.09	3.25417
26.1	3.26733
26.11	3.24857
26.12	3.23476
26.13	3.24134
26.14	3.25219
26.15	3.26963
26.16	3.25746
26.17	3.24101
26.18	3.23246
26.19	3.2841
26.2	3.26338
26.21	3.25121
26.22	3.26469
26.23	3.27226
26.24	3.23969
26.25	3.267
26.26	3.22621
26.27	3.27127
26.28	3.2739
26.29	3.27325
26.3	3.26338
26.31	3.28312
26.32	3.27358
26.33	3.26897
26.34	3.27884
26.35	3.26831
26.36	3.26996
26.37	3.26173
26.38	3.26798
26.39	3.26535
26.4	3.24529
26.41	3.24956
26.42	3.25548
26.43	3.24265
26.44	3.25581
26.45	3.27917
26.46	3.27489
26.47	3.24693
26.48	3.21996
26.49	3.25581
26.5	3.25746
26.51	3.25121
26.52	3.24397
26.53	3.26502
26.54	3.24232
26.55	3.242
26.56	3.29134
26.57	3.23739
26.58	3.26075
26.59	3.292
26.6	3.2443
26.61	3.28542
26.62	3.27621
26.63	3.26239
26.64	3.25318
26.65	3.25219
26.66	3.26009
26.67	3.28015
26.68	3.27127
26.69	3.27687
26.7	3.27621
26.71	3.28476
26.72	3.2545
26.73	3.26963
26.74	3.27621
26.75	3.25614
26.76	3.29167
26.77	3.28015
26.78	3.28081
26.79	3.29825
26.8	3.24397
26.81	3.23805
26.82	3.24529
26.83	3.23575
26.84	3.22982
26.85	3.25515
26.86	3.23706
26.87	3.2466
26.88	3.25943
26.89	3.27621
26.9	3.2818
26.91	3.26831
26.92	3.24232
26.93	3.26108
26.94	3.21568
26.95	3.24693
26.96	3.28213
26.97	3.25581
26.98	3.24463
26.99	3.26502
27	3.27325
27.01	3.27127
27.02	3.26733
27.03	3.2614
27.04	3.28344
27.05	3.25417
27.06	3.25943
27.07	3.26173
27.08	3.23575
27.09	3.24529
27.1	3.23871
27.11	3.25022
27.12	3.27423
27.13	3.25417
27.14	3.28213
27.15	3.24792
27.16	3.23213
27.17	3.25285
27.18	3.2591
27.19	3.25121
27.2	3.25154
27.21	3.26897
27.22	3.26831
27.23	3.27621
27.24	3.24594
27.25	3.24364
27.26	3.27029
27.27	3.25746
27.28	3.23081
27.29	3.25252
27.3	3.2239
27.31	3.2545
27.32	3.24561
27.33	3.2864
27.34	3.23311
27.35	3.23673
27.36	3.27884
27.37	3.27193
27.38	3.24857
27.39	3.22324
27.4	3.23081
27.41	3.26338
27.42	3.30581
27.43	3.28048
27.44	3.25779
27.45	3.24825
27.46	3.2545
27.47	3.23311
27.48	3.24561
27.49	3.25186
27.5	3.2364
27.51	3.2614
27.52	3.292
27.53	3.25811
27.54	3.23607
27.55	3.2443
27.56	3.22982
27.57	3.23476
27.58	3.26075
27.59	3.24496
27.6	3.24298
27.61	3.24002
27.62	3.25384
27.63	3.24726
27.64	3.24792
27.65	3.25318
27.66	3.2364
27.67	3.27193
27.68	3.27917
27.69	3.26535
27.7	3.2466
27.71	3.24923
27.72	3.22752
27.73	3.2966
27.74	3.27588
27.75	3.25022
27.76	3.20482
27.77	3.24035
27.78	3.20844
27.79	3.26404
27.8	3.2568
27.81	3.21239
27.82	3.23311
27.83	3.26371
27.84	3.26568
27.85	3.24627
27.86	3.24693
27.87	3.22851
27.88	3.26831
27.89	3.26568
27.9	3.26305
27.91	3.26897
27.92	3.27456
27.93	3.28904
27.94	3.27061
27.95	3.25417
27.96	3.23936
27.97	3.24726
27.98	3.23739
27.99	3.23443
28	3.2318
28.01	3.2489
28.02	3.2568
28.03	3.26042
28.04	3.24825
28.05	3.25811
28.06	3.27358
28.07	3.28937
28.08	3.23969
28.09	3.24923
28.1	3.2341
28.11	3.23607
28.12	3.26502
28.13	3.27094
28.14	3.2864
28.15	3.24298
28.16	3.2568
28.17	3.2943
28.18	3.27029
28.19	3.25121
28.2	3.25384
28.21	3.23575
28.22	3.24956
28.23	3.23871
28.24	3.26601
28.25	3.25219
28.26	3.22982
28.27	3.22851
28.28	3.2568
28.29	3.25252
28.3	3.26601
28.31	3.25976
28.32	3.25384
28.33	3.2545
28.34	3.21996
28.35	3.24068
28.36	3.24529
28.37	3.25779
28.38	3.27884
28.39	3.22917
28.4	3.25088
28.41	3.25482
28.42	3.25482
28.43	3.27292
28.44	3.25614
28.45	3.24265
28.46	3.25219
28.47	3.24035
28.48	3.26831
28.49	3.28377
28.5	3.27193
28.51	3.27292
28.52	3.21963
28.53	3.24726
28.54	3.24068
28.55	3.25384
28.56	3.24759
28.57	3.21732
28.58	3.25713
28.59	3.24068
28.6	3.26798
28.61	3.25844
28.62	3.29035
28.63	3.23673
28.64	3.267
28.65	3.21831
28.66	3.23607
28.67	3.2466
28.68	3.21765
28.69	3.26864
28.7	3.24134
28.71	3.2466
28.72	3.24331
28.73	3.23706
28.74	3.23772
28.75	3.24002
28.76	3.28706
28.77	3.30845
28.78	3.25384
28.79	3.25581
28.8	3.25713
28.81	3.25318
28.82	3.22357
28.83	3.24397
28.84	3.27325
28.85	3.2739
28.86	3.24857
28.87	3.23871
28.88	3.24068
28.89	3.20811
28.9	3.23048
28.91	3.27029
28.92	3.22917
28.93	3.23772
28.94	3.25219
28.95	3.24956
28.96	3.23936
28.97	3.25713
28.98	3.25186
28.99	3.23377
29	3.22917
29.01	3.2216
29.02	3.26173
29.03	3.27555
29.04	3.27687
29.05	3.24923
29.06	3.24364
29.07	3.2489
29.08	3.27785
29.09	3.26305
29.1	3.25121
29.11	3.23969
29.12	3.22818
29.13	3.2795
29.14	3.27029
29.15	3.2693
29.16	3.21272
29.17	3.23936
29.18	3.24989
29.19	3.2489
29.2	3.27456
29.21	3.27687
29.22	3.23278
29.23	3.23377
29.24	3.22292
29.25	3.25713
29.26	3.23575
29.27	3.27818
29.28	3.26436
29.29	3.26634
29.3	3.24923
29.31	3.29068
29.32	3.26765
29.33	3.26206
29.34	3.26798
29.35	3.27851
29.36	3.29035
29.37	3.2864
29.38	3.26963
29.39	3.25779
29.4	3.22522
29.41	3.26239
29.42	3.2443
29.43	3.25482
29.44	3.25548
29.45	3.25285
29.46	3.28838
29.47	3.27226
29.48	3.24364
29.49	3.26173
29.5	3.2364
29.51	3.24726
29.52	3.26009
29.53	3.24496
29.54	3.24101
29.55	3.27094
29.56	3.24265
29.57	3.26075
29.58	3.25976
29.59	3.26963
29.6	3.23443
29.61	3.24496
29.62	3.24956
29.63	3.25285
29.64	3.26239
29.65	3.26535
29.66	3.25252
29.67	3.21699
29.68	3.25022
29.69	3.28805
29.7	3.27292
29.71	3.25154
29.72	3.25713
29.73	3.25154
29.74	3.24463
29.75	3.24594
29.76	3.24397
29.77	3.27358
29.78	3.27555
29.79	3.24463
29.8	3.25943
29.81	3.24232
29.82	3.23575
29.83	3.27127
29.84	3.26371
29.85	3.27654
29.86	3.26239
29.87	3.29627
29.88	3.26108
29.89	3.26272
29.9	3.26173
29.91	3.25088
29.92	3.2443
29.93	3.24364
29.94	3.26206
29.95	3.24857
29.96	3.26864
29.97	3.25318
29.98	3.23476
29.99	3.24364
30	3.28575
30.01	3.25647
30.02	3.23377
30.03	3.27029
30.04	3.2466
30.05	3.23311
30.06	3.26338
30.07	3.26831
30.08	3.23871
30.09	3.21272
30.1	3.24594
30.11	3.25844
30.12	3.24726
30.13	3.26173
30.14	3.2341
30.15	3.26272
30.16	3.25647
30.17	3.24759
30.18	3.26075
30.19	3.24035
30.2	3.24167
30.21	3.25647
30.22	3.24298
30.23	3.23903
30.24	3.25581
30.25	3.25581
30.26	3.2341
30.27	3.21272
30.28	3.26042
30.29	3.24857
30.3	3.22489
30.31	3.26206
30.32	3.23048
30.33	3.26798
30.34	3.2739
30.35	3.22456
30.36	3.242
30.37	3.23936
30.38	3.24068
30.39	3.23048
30.4	3.26798
30.41	3.25055
30.42	3.26765
30.43	3.26897
30.44	3.2466
30.45	3.25022
30.46	3.23509
30.47	3.27423
30.48	3.26798
30.49	3.24825
30.5	3.24561
30.51	3.25318
30.52	3.2568
30.53	3.27127
30.54	3.2545
30.55	3.26173
30.56	3.20844
30.57	3.26436
30.58	3.28114
30.59	3.28739
30.6	3.27029
30.61	3.28575
30.62	3.27489
30.63	3.23739
30.64	3.20285
30.65	3.26108
30.66	3.2443
30.67	3.25285
30.68	3.242
30.69	3.27719
30.7	3.26239
30.71	3.25746
30.72	3.23936
30.73	3.30351
30.74	3.2818
30.75	3.24759
30.76	3.26075
30.77	3.24529
30.78	3.25779
30.79	3.26634
30.8	3.25022
30.81	3.24463
30.82	3.24068
30.83	3.23871
30.84	3.24956
30.85	3.28015
30.86	3.26601
30.87	3.22489
30.88	3.23542
30.89	3.24989
30.9	3.25384
30.91	3.26239
30.92	3.21502
30.93	3.24693
30.94	3.26305
30.95	3.23443
30.96	3.24923
30.97	3.2716
30.98	3.23246
30.99	3.20877
31	3.23706
31.01	3.23575
31.02	3.26601
31.03	3.24068
31.04	3.21996
31.05	3.24693
31.06	3.25022
31.07	3.25581
31.08	3.23969
31.09	3.23278
31.1	3.24265
31.11	3.22555
31.12	3.25318
31.13	3.25844
31.14	3.23344
31.15	3.23377
31.16	3.24693
31.17	3.2864
31.18	3.30055
31.19	3.2591
31.2	3.25121
31.21	3.23739
31.22	3.23936
31.23	3.25417
31.24	3.27522
31.25	3.24068
31.26	3.2614
31.27	3.25318
31.28	3.25219
31.29	3.2614
31.3	3.25285
31.31	3.23377
31.32	3.22686
31.33	3.25976
31.34	3.2568
31.35	3.27884
31.36	3.26108
31.37	3.25746
31.38	3.24594
31.39	3.26305
31.4	3.28443
31.41	3.22884
31.42	3.24956
31.43	3.26075
31.44	3.25351
31.45	3.24463
31.46	3.28246
31.47	3.25219
31.48	3.23476
31.49	3.24529
31.5	3.26404
31.51	3.26108
31.52	3.24002
31.53	3.2443
31.54	3.24397
31.55	3.25713
31.56	3.23838
31.57	3.26305
31.58	3.27719
31.59	3.25318
31.6	3.27884
31.61	3.27127
31.62	3.24331
31.63	3.2568
31.64	3.25746
31.65	3.24331
31.66	3.2341
31.67	3.267
31.68	3.25285
31.69	3.23542
31.7	3.2545
31.71	3.28015
31.72	3.26075
31.73	3.2443
31.74	3.23969
31.75	3.22028
31.76	3.22226
31.77	3.2364
31.78	3.2489
31.79	3.24134
31.8	3.24298
31.81	3.23673
31.82	3.22621
31.83	3.2443
31.84	3.26009
31.85	3.27029
31.86	3.25647
31.87	3.23081
31.88	3.21272
31.89	3.23377
31.9	3.26502
31.91	3.25088
31.92	3.26371
31.93	3.26206
31.94	3.24529
31.95	3.24364
31.96	3.242
31.97	3.23838
31.98	3.24956
31.99	3.25746
32	3.23213
32.01	3.23246
32.02	3.22752
32.03	3.25219
32.04	3.26272
32.05	3.25022
32.06	3.23147
32.07	3.25252
32.08	3.30483
32.09	3.27292
32.1	3.25515
32.11	3.27555
32.12	3.30187
32.13	3.28279
32.14	3.23871
32.15	3.24364
32.16	3.23838
32.17	3.2443
32.18	3.29891
32.19	3.25746
32.2	3.22357
32.21	3.23772
32.22	3.21699
32.23	3.20877
32.24	3.25779
32.25	3.20778
32.26	3.25844
32.27	3.23509
32.28	3.19528
32.29	3.23509
32.3	3.24364
32.31	3.26042
32.32	3.25121
32.33	3.2568
32.34	3.27094
32.35	3.2591
32.36	3.23081
32.37	3.23542
32.38	3.26798
32.39	3.24134
32.4	3.23344
32.41	3.21535
32.42	3.24989
32.43	3.23706
32.44	3.21732
32.45	3.22917
32.46	3.25417
32.47	3.25482
32.48	3.22851
32.49	3.22423
32.5	3.23311
32.51	3.24265
32.52	3.23772
32.53	3.26371
32.54	3.25219
32.55	3.25219
32.56	3.24101
32.57	3.25417
32.58	3.25647
32.59	3.24561
32.6	3.26667
32.61	3.26338
32.62	3.27983
32.63	3.24627
32.64	3.23903
32.65	3.22226
32.66	3.24529
32.67	3.21074
32.68	3.21502
32.69	3.24463
32.7	3.26075
32.71	3.25154
32.72	3.22686
32.73	3.22259
32.74	3.23081
32.75	3.23377
32.76	3.21996
32.77	3.23871
32.78	3.2318
32.79	3.24627
32.8	3.22555
32.81	3.19759
32.82	3.24496
32.83	3.26404
32.84	3.2489
32.85	3.23739
32.86	3.23673
32.87	3.24989
32.88	3.24825
32.89	3.24857
32.9	3.2614
32.91	3.20943
32.92	3.22456
32.93	3.25746
32.94	3.26009
32.95	3.25746
32.96	3.23015
32.97	3.23805
32.98	3.22259
32.99	3.2318
33	3.24331
33.01	3.24857
33.02	3.25154
33.03	3.25482
33.04	3.22127
33.05	3.21206
33.06	3.27884
33.07	3.2591
33.08	3.25154
33.09	3.25088
33.1	3.25482
33.11	3.22292
33.12	3.26601
33.13	3.27785
33.14	3.26963
33.15	3.23377
33.16	3.21996
33.17	3.23903
33.18	3.25022
33.19	3.26338
33.2	3.2443
33.21	3.26667
33.22	3.23147
33.23	3.267
33.24	3.26075
33.25	3.25746
33.26	3.26009
33.27	3.25055
33.28	3.23772
33.29	3.25746
33.3	3.2443
33.31	3.23344
33.32	3.23246
33.33	3.26733
33.34	3.27259
33.35	3.26469
33.36	3.26535
33.37	3.25252
33.38	3.23871
33.39	3.25154
33.4	3.25877
33.41	3.25186
33.42	3.24825
33.43	3.24101
33.44	3.20778
33.45	3.22884
33.46	3.23114
33.47	3.22259
33.48	3.21568
33.49	3.20877
33.5	3.23213
33.51	3.26108
33.52	3.24989
33.53	3.24068
33.54	3.26206
33.55	3.29562
33.56	3.24627
33.57	3.25154
33.58	3.27687
33.59	3.27522
33.6	3.25022
33.61	3.2239
33.62	3.21074
33.63	3.24989
33.64	3.22555
33.65	3.2568
33.66	3.22884
33.67	3.25614
33.68	3.25943
33.69	3.23476
33.7	3.22193
33.71	3.25647
33.72	3.26568
33.73	3.25154
33.74	3.29233
33.75	3.26831
33.76	3.23081
33.77	3.23607
33.78	3.25219
33.79	3.27259
33.8	3.20943
33.81	3.2545
33.82	3.26601
33.83	3.25417
33.84	3.25022
33.85	3.26996
33.86	3.25943
33.87	3.24759
33.88	3.26963
33.89	3.23081
33.9	3.22785
33.91	3.25713
33.92	3.25252
33.93	3.27193
33.94	3.22292
33.95	3.23246
33.96	3.22686
33.97	3.24825
33.98	3.24397
33.99	3.29923
34	3.25976
34.01	3.25844
34.02	3.24463
34.03	3.24298
34.04	3.26239
34.05	3.25515
34.06	3.24792
34.07	3.2295
34.08	3.23147
34.09	3.23048
34.1	3.22357
34.11	3.22324
34.12	3.23147
34.13	3.27061
34.14	3.26733
34.15	3.2568
34.16	3.2295
34.17	3.24298
34.18	3.2318
34.19	3.22752
34.2	3.23805
34.21	3.24989
34.22	3.2489
34.23	3.26042
34.24	3.23377
34.25	3.24101
34.26	3.23871
34.27	3.23542
34.28	3.23903
34.29	3.2341
34.3	3.21996
34.31	3.23838
34.32	3.24002
34.33	3.26371
34.34	3.21107
34.35	3.23344
34.36	3.2295
34.37	3.2364
34.38	3.24232
34.39	3.22686
34.4	3.21963
34.41	3.25713
34.42	3.23969
34.43	3.2295
34.44	3.24726
34.45	3.25219
34.46	3.24331
34.47	3.2216
34.48	3.20811
34.49	3.25877
34.5	3.29167
34.51	3.27325
34.52	3.24594
34.53	3.25746
34.54	3.25055
34.55	3.25811
34.56	3.28312
34.57	3.24397
34.58	3.25285
34.59	3.23377
34.6	3.22094
34.61	3.22193
34.62	3.22522
34.63	3.25252
34.64	3.22028
34.65	3.2216
34.66	3.24002
34.67	3.25614
34.68	3.24397
34.69	3.23772
34.7	3.21699
34.71	3.24101
34.72	3.2466
34.73	3.2591
34.74	3.26272
34.75	3.20417
34.76	3.27127
34.77	3.24594
34.78	3.22489
34.79	3.24561
34.8	3.25482
34.81	3.26042
34.82	3.25154
34.83	3.23476
34.84	3.2341
34.85	3.26009
34.86	3.23344
34.87	3.25746
34.88	3.25022
34.89	3.22818
34.9	3.22127
34.91	3.21469
34.92	3.22094
34.93	3.25318
34.94	3.2318
34.95	3.22357
34.96	3.24232
34.97	3.2295
34.98	3.24857
34.99	3.25055
35	3.22752
35.01	3.24594
35.02	3.27752
35.03	3.24364
35.04	3.24923
35.05	3.25055
35.06	3.2545
35.07	3.20713
35.08	3.23311
35.09	3.25877
35.1	3.24857
35.11	3.21601
35.12	3.2341
35.13	3.26042
35.14	3.2489
35.15	3.26239
35.16	3.23575
35.17	3.24693
35.18	3.22884
35.19	3.26601
35.2	3.22851
35.21	3.22818
35.22	3.23673
35.23	3.21699
35.24	3.2239
35.25	3.24825
35.26	3.23443
35.27	3.24594
35.28	3.267
35.29	3.24068
35.3	3.25482
35.31	3.25482
35.32	3.27226
35.33	3.2591
35.34	3.25515
35.35	3.27489
35.36	3.25285
35.37	3.26601
35.38	3.27292
35.39	3.26371
35.4	3.2193
35.41	3.21272
35.42	3.26075
35.43	3.28673
35.44	3.25779
35.45	3.26173
35.46	3.25154
35.47	3.23344
35.48	3.25844
35.49	3.25351
35.5	3.24002
35.51	3.20614
35.52	3.23838
35.53	3.24726
35.54	3.22028
35.55	3.22489
35.56	3.23278
35.57	3.22719
35.58	3.24068
35.59	3.22489
35.6	3.23114
35.61	3.22456
35.62	3.23969
35.63	3.2443
35.64	3.24331
35.65	3.24134
35.66	3.25186
35.67	3.23509
35.68	3.24989
35.69	3.23344
35.7	3.23246
35.71	3.25154
35.72	3.24956
35.73	3.22785
35.74	3.24956
35.75	3.24792
35.76	3.23377
35.77	3.26108
35.78	3.26831
35.79	3.26634
35.8	3.24693
35.81	3.23344
35.82	3.23476
35.83	3.24627
35.84	3.23969
35.85	3.21996
35.86	3.25779
35.87	3.25351
35.88	3.25614
35.89	3.25515
35.9	3.23838
35.91	3.20877
35.92	3.22686
35.93	3.2364
35.94	3.2364
35.95	3.28344
35.96	3.22752
35.97	3.23936
35.98	3.23673
35.99	3.21403
36	3.25779
36.01	3.24002
36.02	3.22917
36.03	3.20976
36.04	3.23476
36.05	3.26436
36.06	3.27687
36.07	3.28114
36.08	3.25252
36.09	3.26996
36.1	3.24134
36.11	3.23739
36.12	3.29397
36.13	3.25877
36.14	3.24397
36.15	3.2591
36.16	3.22357
36.17	3.19989
36.18	3.25055
36.19	3.27588
36.2	3.27423
36.21	3.23311
36.22	3.26272
36.23	3.24364
36.24	3.25581
36.25	3.24035
36.26	3.24627
36.27	3.26436
36.28	3.25779
36.29	3.26108
36.3	3.23311
36.31	3.2568
36.32	3.23048
36.33	3.23476
36.34	3.24561
36.35	3.24265
36.36	3.27358
36.37	3.29364
36.38	3.22917
36.39	3.24364
36.4	3.25844
36.41	3.24002
36.42	3.26963
36.43	3.23344
36.44	3.2091
36.45	3.26798
36.46	3.26667
36.47	3.25022
36.48	3.22292
36.49	3.24397
36.5	3.23542
36.51	3.21996
36.52	3.22061
36.53	3.23542
36.54	3.25351
36.55	3.2614
36.56	3.25713
36.57	3.2489
36.58	3.26864
36.59	3.25779
36.6	3.25121
36.61	3.24397
36.62	3.25384
36.63	3.23147
36.64	3.2012
36.65	3.21897
36.66	3.22982
36.67	3.26009
36.68	3.21699
36.69	3.2012
36.7	3.24298
36.71	3.24956
36.72	3.23311
36.73	3.20088
36.74	3.22094
36.75	3.26634
36.76	3.25022
36.77	3.26864
36.78	3.23476
36.79	3.23278
36.8	3.24167
36.81	3.25482
36.82	3.25384
36.83	3.28114
36.84	3.26108
36.85	3.24265
36.86	3.20055
36.87	3.22982
36.88	3.2295
36.89	3.23246
36.9	3.22357
36.91	3.19265
36.92	3.242
36.93	3.23509
36.94	3.24561
36.95	3.23772
36.96	3.2489
36.97	3.23147
36.98	3.26568
36.99	3.25844
37	3.28312
37.01	3.23443
37.02	3.22982
37.03	3.22785
37.04	3.24529
37.05	3.29298
37.06	3.24529
37.07	3.21831
37.08	3.24364
37.09	3.23871
37.1	3.2545
37.11	3.27588
37.12	3.25219
37.13	3.27061
37.14	3.23377
37.15	3.22522
37.16	3.23509
37.17	3.24134
37.18	3.23903
37.19	3.24397
37.2	3.23706
37.21	3.25548
37.22	3.27127
37.23	3.25976
37.24	3.23575
37.25	3.25417
37.26	3.29101
37.27	3.24759
37.28	3.22522
37.29	3.23739
37.3	3.25779
37.31	3.22621
37.32	3.22094
37.33	3.21239
37.34	3.22193
37.35	3.24956
37.36	3.22621
37.37	3.19726
37.38	3.23509
37.39	3.22621
37.4	3.23147
37.41	3.26371
37.42	3.24594
37.43	3.27522
37.44	3.27061
37.45	3.25581
37.46	3.26042
37.47	3.23673
37.48	3.23607
37.49	3.27292
37.5	3.2489
37.51	3.20351
37.52	3.23311
37.53	3.23706
37.54	3.26371
37.55	3.22292
37.56	3.22851
37.57	3.21699
37.58	3.2068
37.59	3.23015
37.6	3.24232
37.61	3.21436
37.62	3.23706
37.63	3.25844
37.64	3.2466
37.65	3.20976
37.66	3.2614
37.67	3.28081
37.68	3.25318
37.69	3.27423
37.7	3.25351
37.71	3.25482
37.72	3.27358
37.73	3.24825
37.74	3.24956
37.75	3.22061
37.76	3.22555
37.77	3.24529
37.78	3.22324
37.79	3.22818
37.8	3.25285
37.81	3.25614
37.82	3.25318
37.83	3.24529
37.84	3.1864
37.85	3.24167
37.86	3.20713
37.87	3.2443
37.88	3.2091
37.89	3.23015
37.9	3.24167
37.91	3.27061
37.92	3.20713
37.93	3.20778
37.94	3.24496
37.95	3.25976
37.96	3.23344
37.97	3.23575
37.98	3.23607
37.99	3.2614
38	3.19759
38.01	3.25154
38.02	3.25746
38.03	3.28246
38.04	3.28344
38.05	3.22489
38.06	3.24134
38.07	3.23805
38.08	3.23344
38.09	3.25252
38.1	3.26535
38.11	3.22423
38.12	3.23838
38.13	3.26996
38.14	3.24857
38.15	3.23903
38.16	3.23575
38.17	3.24726
38.18	3.27127
38.19	3.25877
38.2	3.2364
38.21	3.22884
38.22	3.25943
38.23	3.24068
38.24	3.24364
38.25	3.26371
38.26	3.27818
38.27	3.2341
38.28	3.23081
38.29	3.24364
38.3	3.25055
38.31	3.23246
38.32	3.22818
38.33	3.22357
38.34	3.24364
38.35	3.23936
38.36	3.2591
38.37	3.26634
38.38	3.23772
38.39	3.21173
38.4	3.21864
38.41	3.23213
38.42	3.26733
38.43	3.27522
38.44	3.23903
38.45	3.24496
38.46	3.24726
38.47	3.23969
38.48	3.26436
38.49	3.28048
38.5	3.25285
38.51	3.24956
38.52	3.23443
38.53	3.2341
38.54	3.24265
38.55	3.22423
38.56	3.24364
38.57	3.22292
38.58	3.20515
38.59	3.24331
38.6	3.20877
38.61	3.23706
38.62	3.24627
38.63	3.21173
38.64	3.24923
38.65	3.21469
38.66	3.22357
38.67	3.20778
38.68	3.25154
38.69	3.28575
38.7	3.23871
38.71	3.24923
38.72	3.25713
38.73	3.242
38.74	3.26535
38.75	3.2545
38.76	3.2545
38.77	3.24529
38.78	3.26667
38.79	3.24561
38.8	3.22456
38.81	3.22851
38.82	3.23969
38.83	3.242
38.84	3.23278
38.85	3.23575
38.86	3.23575
38.87	3.20022
38.88	3.23081
38.89	3.23772
38.9	3.21568
38.91	3.26305
38.92	3.25647
38.93	3.21831
38.94	3.22686
38.95	3.22324
38.96	3.20976
38.97	3.19923
38.98	3.242
38.99	3.2545
39	3.24134
39.01	3.26765
39.02	3.25779
39.03	3.23969
39.04	3.1989
39.05	3.25614
39.06	3.24265
39.07	3.25154
39.08	3.23147
39.09	3.26173
39.1	3.23147
39.11	3.21963
39.12	3.22324
39.13	3.23969
39.14	3.22423
39.15	3.25154
39.16	3.25482
39.17	3.29562
39.18	3.27358
39.19	3.24232
39.2	3.26239
39.21	3.23838
39.22	3.22555
39.23	3.24035
39.24	3.23476
39.25	3.24068
39.26	3.19364
39.27	3.24331
39.28	3.25088
39.29	3.25482
39.3	3.23311
39.31	3.21535
39.32	3.21272
39.33	3.26601
39.34	3.23772
39.35	3.22851
39.36	3.25417
39.37	3.25154
39.38	3.22917
39.39	3.21239
39.4	3.21864
39.41	3.23838
39.42	3.22292
39.43	3.25022
39.44	3.23246
39.45	3.22686
39.46	3.19331
39.47	3.24134
39.48	3.21239
39.49	3.19726
39.5	3.21239
39.51	3.21699
39.52	3.24463
39.53	3.25285
39.54	3.22555
39.55	3.25121
39.56	3.21535
39.57	3.26108
39.58	3.2545
39.59	3.24068
39.6	3.24956
39.61	3.23575
39.62	3.23278
39.63	3.25417
39.64	3.20548
39.65	3.20647
39.66	3.24594
39.67	3.23838
39.68	3.24956
39.69	3.27719
39.7	3.28344
39.71	3.25779
39.72	3.26667
39.73	3.25515
39.74	3.29134
39.75	3.27094
39.76	3.22982
39.77	3.22489
39.78	3.25647
39.79	3.29035
39.8	3.26502
39.81	3.23607
39.82	3.22423
39.83	3.23509
39.84	3.24331
39.85	3.24331
39.86	3.27555
39.87	3.23048
39.88	3.22851
39.89	3.23673
39.9	3.22785
39.91	3.23081
39.92	3.24364
39.93	3.25351
39.94	3.25976
39.95	3.22193
39.96	3.23114
39.97	3.24923
39.98	3.22884
39.99	3.22028
40	3.20022
40.01	3.23377
40.02	3.2364
40.03	3.24594
40.04	3.22489
40.05	3.25022
40.06	3.2545
40.07	3.23903
40.08	3.24167
40.09	3.24167
40.1	3.25844
40.11	3.22752
40.12	3.23311
40.13	3.25154
40.14	3.24693
40.15	3.19989
40.16	3.23015
40.17	3.25351
40.18	3.19923
40.19	3.21963
40.2	3.20351
40.21	3.23969
40.22	3.23575
40.23	3.28476
40.24	3.25943
40.25	3.23575
40.26	3.23377
40.27	3.25219
40.28	3.23673
40.29	3.23048
40.3	3.25022
40.31	3.24463
40.32	3.24002
40.33	3.22719
40.34	3.22752
40.35	3.23969
40.36	3.24857
40.37	3.25088
40.38	3.25548
40.39	3.22489
40.4	3.21535
40.41	3.26108
40.42	3.23015
40.43	3.24463
40.44	3.22456
40.45	3.22094
40.46	3.22423
40.47	3.2591
40.48	3.22818
40.49	3.22357
40.5	3.24298
40.51	3.26042
40.52	3.23542
40.53	3.23114
40.54	3.24627
40.55	3.2364
40.56	3.22851
40.57	3.19956
40.58	3.18607
40.59	3.24594
40.6	3.26798
40.61	3.23246
40.62	3.2466
40.63	3.22094
40.64	3.26733
40.65	3.23509
40.66	3.25088
40.67	3.26897
40.68	3.24627
40.69	3.19561
40.7	3.22292
40.71	3.25943
40.72	3.23509
40.73	3.21963
40.74	3.24364
40.75	3.24496
40.76	3.23805
40.77	3.21963
40.78	3.242
40.79	3.22686
40.8	3.25219
40.81	3.21667
40.82	3.23147
40.83	3.27456
40.84	3.24857
40.85	3.20745
40.86	3.25121
40.87	3.27522
40.88	3.24397
40.89	3.25022
40.9	3.24857
40.91	3.24364
40.92	3.2364
40.93	3.23015
40.94	3.24792
40.95	3.24496
40.96	3.21601
40.97	3.23607
40.98	3.2443
40.99	3.23213
41	3.26371
41.01	3.22785
41.02	3.25811
41.03	3.25647
41.04	3.24463
41.05	3.25285
41.06	3.22061
41.07	3.20449
41.08	3.23706
41.09	3.23739
41.1	3.23114
41.11	3.21403
41.12	3.2341
41.13	3.23377
41.14	3.21338
41.15	3.23936
41.16	3.21831
41.17	3.23081
41.18	3.22917
41.19	3.2216
41.2	3.23936
41.21	3.23838
41.22	3.27489
41.23	3.25482
41.24	3.24693
41.25	3.25055
41.26	3.22094
41.27	3.23542
41.28	3.22621
41.29	3.23048
41.3	3.20811
41.31	3.22423
41.32	3.2341
41.33	3.26996
41.34	3.28377
41.35	3.22653
41.36	3.21009
41.37	3.2591
41.38	3.24496
41.39	3.24035
41.4	3.23443
41.41	3.23081
41.42	3.27851
41.43	3.25746
41.44	3.23838
41.45	3.23246
41.46	3.22653
41.47	3.25943
41.48	3.24923
41.49	3.24463
41.5	3.21634
41.51	3.22193
41.52	3.25186
41.53	3.24857
41.54	3.23838
41.55	3.22094
41.56	3.20614
41.57	3.21568
41.58	3.2216
41.59	3.26535
41.6	3.267
41.61	3.24825
41.62	3.20285
41.63	3.23607
41.64	3.22818
41.65	3.23213
41.66	3.2068
41.67	3.23969
41.68	3.20976
41.69	3.26206
41.7	3.25647
41.71	3.24298
41.72	3.23377
41.73	3.2341
41.74	3.23114
41.75	3.24463
41.76	3.23213
41.77	3.25779
41.78	3.21963
41.79	3.18739
41.8	3.22226
41.81	3.20778
41.82	3.22324
41.83	3.20745
41.84	3.21107
41.85	3.24693
41.86	3.25713
41.87	3.26634
41.88	3.24167
41.89	3.21469
41.9	3.2318
41.91	3.24134
41.92	3.22851
41.93	3.22686
41.94	3.23673
41.95	3.23311
41.96	3.22752
41.97	3.23575
41.98	3.19989
41.99	3.21864
42	3.24397
42.01	3.23706
42.02	3.23871
42.03	3.26371
42.04	3.25943
42.05	3.21765
42.06	3.21897
42.07	3.23311
42.08	3.2239
42.09	3.23739
42.1	3.23805
42.11	3.22028
42.12	3.21568
42.13	3.24331
42.14	3.21864
42.15	3.23969
42.16	3.2545
42.17	3.20976
42.18	3.23607
42.19	3.24331
42.2	3.22719
42.21	3.21206
42.22	3.27423
42.23	3.21897
42.24	3.22489
42.25	3.25811
42.26	3.24002
42.27	3.24726
42.28	3.22719
42.29	3.21338
42.3	3.24002
42.31	3.25713
42.32	3.22193
42.33	3.26272
42.34	3.25877
42.35	3.26305
42.36	3.22028
42.37	3.24101
42.38	3.22522
42.39	3.2341
42.4	3.28213
42.41	3.25746
42.42	3.23344
42.43	3.23213
42.44	3.22456
42.45	3.21206
42.46	3.20252
42.47	3.22226
42.48	3.18377
42.49	3.22785
42.5	3.24463
42.51	3.23048
42.52	3.20153
42.53	3.21403
42.54	3.22555
42.55	3.23542
42.56	3.24693
42.57	3.26568
42.58	3.25121
42.59	3.24825
42.6	3.24759
42.61	3.19199
42.62	3.2068
42.63	3.23015
42.64	3.23246
42.65	3.22226
42.66	3.23147
42.67	3.2295
42.68	3.20153
42.69	3.22686
42.7	3.23903
42.71	3.22324
42.72	3.23015
42.73	3.26436
42.74	3.23278
42.75	3.25318
42.76	3.24923
42.77	3.23311
42.78	3.23838
42.79	3.24035
42.8	3.22522
42.81	3.22653
42.82	3.20877
42.83	3.21272
42.84	3.26765
42.85	3.267
42.86	3.24825
42.87	3.23048
42.88	3.23278
42.89	3.23443
42.9	3.25154
42.91	3.23542
42.92	3.25055
42.93	3.24035
42.94	3.20022
42.95	3.24989
42.96	3.23542
42.97	3.21436
42.98	3.24364
42.99	3.23048
43	3.26108
43.01	3.24923
43.02	3.24463
43.03	3.22259
43.04	3.20252
43.05	3.23772
43.06	3.23147
43.07	3.23936
43.08	3.26206
43.09	3.24232
43.1	3.23936
43.11	3.21436
43.12	3.24561
43.13	3.21798
43.14	3.22094
43.15	3.23278
43.16	3.24594
43.17	3.22884
43.18	3.23903
43.19	3.26864
43.2	3.24627
43.21	3.24594
43.22	3.21107
43.23	3.21206
43.24	3.24002
43.25	3.22686
43.26	3.21436
43.27	3.19824
43.28	3.22226
43.29	3.22028
43.3	3.23015
43.31	3.1989
43.32	3.20186
43.33	3.23673
43.34	3.20022
43.35	3.19331
43.36	3.22818
43.37	3.24792
43.38	3.26469
43.39	3.24463
43.4	3.23048
43.41	3.23015
43.42	3.22061
43.43	3.21568
43.44	3.21765
43.45	3.24002
43.46	3.23575
43.47	3.25088
43.48	3.25943
43.49	3.25022
43.5	3.25022
43.51	3.2114
43.52	3.21403
43.53	3.22621
43.54	3.22818
43.55	3.25055
43.56	3.24627
43.57	3.24265
43.58	3.23739
43.59	3.26239
43.6	3.25844
43.61	3.2364
43.62	3.242
43.63	3.23903
43.64	3.22259
43.65	3.22324
43.66	3.22555
43.67	3.25055
43.68	3.24298
43.69	3.23377
43.7	3.25548
43.71	3.23081
43.72	3.25614
43.73	3.22851
43.74	3.21996
43.75	3.2216
43.76	3.2489
43.77	3.21107
43.78	3.20482
43.79	3.2568
43.8	3.2443
43.81	3.24035
43.82	3.21535
43.83	3.21173
43.84	3.21239
43.85	3.20976
43.86	3.21469
43.87	3.21601
43.88	3.25154
43.89	3.21403
43.9	3.20877
43.91	3.21963
43.92	3.21403
43.93	3.25351
43.94	3.22489
43.95	3.22982
43.96	3.2489
43.97	3.25943
43.98	3.26469
43.99	3.27588
44	3.26042
44.01	3.27325
44.02	3.23805
44.03	3.23147
44.04	3.23706
44.05	3.23542
44.06	3.24496
44.07	3.22588
44.08	3.22884
44.09	3.22752
44.1	3.21996
44.11	3.2012
44.12	3.23081
44.13	3.2341
44.14	3.24594
44.15	3.23575
44.16	3.20252
44.17	3.25548
44.18	3.21864
44.19	3.24002
44.2	3.27917
44.21	3.24759
44.22	3.23542
44.23	3.22226
44.24	3.23344
44.25	3.23476
44.26	3.2443
44.27	3.21963
44.28	3.22094
44.29	3.24857
44.3	3.19857
44.31	3.24101
44.32	3.23048
44.33	3.22752
44.34	3.26173
44.35	3.2466
44.36	3.23377
44.37	3.21272
44.38	3.22686
44.39	3.22982
44.4	3.20976
44.41	3.20647
44.42	3.19298
44.43	3.22226
44.44	3.22917
44.45	3.2341
44.46	3.25844
44.47	3.21996
44.48	3.23015
44.49	3.23509
44.5	3.26798
44.51	3.25811
44.52	3.2193
44.53	3.21864
44.54	3.242
44.55	3.24792
44.56	3.25482
44.57	3.23969
44.58	3.21831
44.59	3.22686
44.6	3.23542
44.61	3.23871
44.62	3.27259
44.63	3.23936
44.64	3.23443
44.65	3.22621
44.66	3.21568
44.67	3.24232
44.68	3.24825
44.69	3.21042
44.7	3.2216
44.71	3.25252
44.72	3.2443
44.73	3.25713
44.74	3.22653
44.75	3.21765
44.76	3.23081
44.77	3.21601
44.78	3.24561
44.79	3.25022
44.8	3.24167
44.81	3.24068
44.82	3.2443
44.83	3.25088
44.84	3.2239
44.85	3.26765
44.86	3.26667
44.87	3.24857
44.88	3.18311
44.89	3.20153
44.9	3.19857
44.91	3.2341
44.92	3.21436
44.93	3.20022
44.94	3.24265
44.95	3.22621
44.96	3.19792
44.97	3.22686
44.98	3.21634
44.99	3.21699
45	3.22555
45.01	3.21601
45.02	3.22324
45.03	3.21338
45.04	3.23311
45.05	3.21403
45.06	3.2239
45.07	3.2341
45.08	3.21699
45.09	3.26108
45.1	3.25351
45.11	3.24002
45.12	3.25713
45.13	3.24594
45.14	3.22621
45.15	3.26108
45.16	3.22357
45.17	3.23903
45.18	3.22917
45.19	3.25252
45.2	3.24825
45.21	3.24463
45.22	3.22489
45.23	3.30614
45.24	3.27522
45.25	3.2216
45.26	3.20351
45.27	3.19824
45.28	3.2295
45.29	3.22851
45.3	3.22818
45.31	3.25088
45.32	3.24956
45.33	3.25548
45.34	3.2443
45.35	3.24956
45.36	3.25647
45.37	3.24693
45.38	3.21897
45.39	3.26206
45.4	3.25548
45.41	3.24594
45.42	3.24232
45.43	3.23246
45.44	3.28147
45.45	3.23476
45.46	3.22917
45.47	3.23213
45.48	3.22686
45.49	3.21074
45.5	3.22456
45.51	3.26371
45.52	3.25384
45.53	3.23246
45.54	3.22719
45.55	3.21897
45.56	3.23246
45.57	3.23344
45.58	3.26404
45.59	3.23015
45.6	3.18673
45.61	3.24594
45.62	3.23838
45.63	3.2591
45.64	3.25647
45.65	3.23081
45.66	3.25022
45.67	3.25548
45.68	3.21239
45.69	3.23706
45.7	3.25022
45.71	3.19561
45.72	3.24529
45.73	3.25285
45.74	3.21568
45.75	3.18377
45.76	3.1989
45.77	3.21042
45.78	3.23969
45.79	3.22522
45.8	3.21601
45.81	3.21535
45.82	3.23673
45.83	3.22686
45.84	3.23311
45.85	3.22522
45.86	3.24627
45.87	3.26009
45.88	3.27588
45.89	3.23246
45.9	3.23772
45.91	3.22324
45.92	3.23278
45.93	3.22357
45.94	3.25121
45.95	3.25219
45.96	3.22357
45.97	3.25647
45.98	3.25482
45.99	3.22818
46	3.22719
46.01	3.22357
46.02	3.21371
46.03	3.21074
46.04	3.22423
46.05	3.2068
46.06	3.20713
46.07	3.24167
46.08	3.22127
46.09	3.21272
46.1	3.25285
46.11	3.21634
46.12	3.2364
46.13	3.25252
46.14	3.19528
46.15	3.24561
46.16	3.23213
46.17	3.24101
46.18	3.24265
46.19	3.21765
46.2	3.25055
46.21	3.20943
46.22	3.21831
46.23	3.21074
46.24	3.23476
46.25	3.22621
46.26	3.22259
46.27	3.2193
46.28	3.22292
46.29	3.22653
46.3	3.20581
46.31	3.24496
46.32	3.25252
46.33	3.23443
46.34	3.24134
46.35	3.25844
46.36	3.26075
46.37	3.2239
46.38	3.21699
46.39	3.22324
46.4	3.24035
46.41	3.24298
46.42	3.27621
46.43	3.27061
46.44	3.26831
46.45	3.27061
46.46	3.23772
46.47	3.20449
46.48	3.22588
46.49	3.23509
46.5	3.22555
46.51	3.23969
46.52	3.22818
46.53	3.26436
46.54	3.23739
46.55	3.21963
46.56	3.23838
46.57	3.21996
46.58	3.24594
46.59	3.2364
46.6	3.24463
46.61	3.22686
46.62	3.20811
46.63	3.23015
46.64	3.23936
46.65	3.24331
46.66	3.24068
46.67	3.20877
46.68	3.22489
46.69	3.21732
46.7	3.24463
46.71	3.23213
46.72	3.22357
46.73	3.24167
46.74	3.23443
46.75	3.22653
46.76	3.26831
46.77	3.24068
46.78	3.24594
46.79	3.24167
46.8	3.23246
46.81	3.21634
46.82	3.24627
46.83	3.23476
46.84	3.21798
46.85	3.21996
46.86	3.24002
46.87	3.24627
46.88	3.21798
46.89	3.23706
46.9	3.26634
46.91	3.24923
46.92	3.2466
46.93	3.21305
46.94	3.26404
46.95	3.21831
46.96	3.20186
46.97	3.19759
46.98	3.24134
46.99	3.2295
47	3.23509
47.01	3.22752
47.02	3.23838
47.03	3.26634
47.04	3.22292
47.05	3.18311
47.06	3.2295
47.07	3.24594
47.08	3.26798
47.09	3.25186
47.1	3.24397
47.11	3.25384
47.12	3.26239
47.13	3.25088
47.14	3.24463
47.15	3.25285
47.16	3.23509
47.17	3.23575
47.18	3.24232
47.19	3.23871
47.2	3.25548
47.21	3.26568
47.22	3.22061
47.23	3.24857
47.24	3.23575
47.25	3.23739
47.26	3.24331
47.27	3.22621
47.28	3.24529
47.29	3.24265
47.3	3.23673
47.31	3.24594
47.32	3.27719
47.33	3.23969
47.34	3.21568
47.35	3.21371
47.36	3.22982
47.37	3.20318
47.38	3.2114
47.39	3.23739
47.4	3.21798
47.41	3.23706
47.42	3.22061
47.43	3.21831
47.44	3.23706
47.45	3.22785
47.46	3.22357
47.47	3.2068
47.48	3.23838
47.49	3.21535
47.5	3.22423
47.51	3.24397
47.52	3.24068
47.53	3.21897
47.54	3.23278
47.55	3.25121
47.56	3.25088
47.57	3.22982
47.58	3.20482
47.59	3.23311
47.6	3.22193
47.61	3.22357
47.62	3.22226
47.63	3.22588
47.64	3.20943
47.65	3.22621
47.66	3.21502
47.67	3.25285
47.68	3.25285
47.69	3.24265
47.7	3.23443
47.71	3.27127
47.72	3.25877
47.73	3.24693
47.74	3.22028
47.75	3.242
47.76	3.22851
47.77	3.23739
47.78	3.26371
47.79	3.28015
47.8	3.23903
47.81	3.23278
47.82	3.19331
47.83	3.25779
47.84	3.2568
47.85	3.24594
47.86	3.21667
47.87	3.24035
47.88	3.22127
47.89	3.20581
47.9	3.21535
47.91	3.21371
47.92	3.23311
47.93	3.22357
47.94	3.25121
47.95	3.22061
47.96	3.26765
47.97	3.22028
47.98	3.23246
47.99	3.2489
48	3.22127
48.01	3.22917
48.02	3.2364
48.03	3.25515
48.04	3.22588
48.05	3.22357
48.06	3.19002
48.07	3.19101
48.08	3.21634
48.09	3.22588
48.1	3.27522
48.11	3.20351
48.12	3.21502
48.13	3.22785
48.14	3.21732
48.15	3.21963
48.16	3.27851
48.17	3.26272
48.18	3.23739
48.19	3.24825
48.2	3.22851
48.21	3.21436
48.22	3.22094
48.23	3.23081
48.24	3.24792
48.25	3.2114
48.26	3.22851
48.27	3.26075
48.28	3.21864
48.29	3.2216
48.3	3.27193
48.31	3.23246
48.32	3.22292
48.33	3.23377
48.34	3.23739
48.35	3.25811
48.36	3.24167
48.37	3.24923
48.38	3.24035
48.39	3.25285
48.4	3.26338
48.41	3.21042
48.42	3.24265
48.43	3.24167
48.44	3.24002
48.45	3.21963
48.46	3.20351
48.47	3.24857
48.48	3.28575
48.49	3.24759
48.5	3.21897
48.51	3.23443
48.52	3.25384
48.53	3.23015
48.54	3.22028
48.55	3.21667
48.56	3.2193
48.57	3.20976
48.58	3.21963
48.59	3.24989
48.6	3.23739
48.61	3.24594
48.62	3.25548
48.63	3.23443
48.64	3.24594
48.65	3.25285
48.66	3.22061
48.67	3.2341
48.68	3.2091
48.69	3.24594
48.7	3.23213
48.71	3.22357
48.72	3.23311
48.73	3.21963
48.74	3.21436
48.75	3.20417
48.76	3.18574
48.77	3.21963
48.78	3.23838
48.79	3.18673
48.8	3.2568
48.81	3.22127
48.82	3.21798
48.83	3.27358
48.84	3.26042
48.85	3.18377
48.86	3.21206
48.87	3.20778
48.88	3.23278
48.89	3.2114
48.9	3.2193
48.91	3.2466
48.92	3.20745
48.93	3.21831
48.94	3.22193
48.95	3.24331
48.96	3.24923
48.97	3.21568
48.98	3.21173
48.99	3.19101
49	3.22127
49.01	3.2012
49.02	3.22226
49.03	3.23278
49.04	3.19956
49.05	3.22423
49.06	3.2568
49.07	3.22555
49.08	3.25614
49.09	3.24298
49.1	3.2216
49.11	3.20581
49.12	3.24232
49.13	3.24265
49.14	3.24792
49.15	3.23213
49.16	3.21798
49.17	3.24167
49.18	3.21732
49.19	3.22588
49.2	3.22259
49.21	3.23936
49.22	3.21239
49.23	3.21634
49.24	3.21798
49.25	3.22653
49.26	3.24232
49.27	3.24002
49.28	3.24956
49.29	3.22292
49.3	3.21074
49.31	3.21601
49.32	3.20976
49.33	3.24693
49.34	3.22028
49.35	3.19594
49.36	3.17456
49.37	3.22555
49.38	3.23542
49.39	3.24397
49.4	3.242
49.41	3.23278
49.42	3.22719
49.43	3.242
49.44	3.26042
49.45	3.24594
49.46	3.1966
49.47	3.23015
49.48	3.22818
49.49	3.22061
49.5	3.23871
49.51	3.26305
49.52	3.22522
49.53	3.23903
49.54	3.24101
49.55	3.22917
49.56	3.24792
49.57	3.26568
49.58	3.2295
49.59	3.22324
49.6	3.26798
49.61	3.23838
49.62	3.2216
49.63	3.24693
49.64	3.23575
49.65	3.23476
49.66	3.22028
49.67	3.24627
49.68	3.22982
49.69	3.22884
49.7	3.2239
49.71	3.21667
49.72	3.23377
49.73	3.22094
49.74	3.20055
49.75	3.23476
49.76	3.22127
49.77	3.19528
49.78	3.21305
49.79	3.2614
49.8	3.24857
49.81	3.22292
49.82	3.21272
49.83	3.22522
49.84	3.23607
49.85	3.20482
49.86	3.22456
49.87	3.24956
49.88	3.23575
49.89	3.23805
49.9	3.21864
49.91	3.22555
49.92	3.21305
49.93	3.22324
49.94	3.23114
49.95	3.20515
49.96	3.22423
49.97	3.24561
49.98	3.24561
49.99	3.2295
50	3.24101
