"BIO-KINE ASCII FILE"
"_COMMENT"	"MOS-500 Spectrometer"
"_COMMENT"	"Kinetics measurement"
"_COMMENT"	"Y Unit : Volt,  X Unit : s"
"_COMMENT"	"Excitation wavelength : 380 nm"
"_COMMENT"	"Fentes bandwidth =  1 nm"
"_COMMENT"	"HV= 800V"
"_COMMENT"	"Timebase  1 =  .01 s   3001 pts"
"_SFM"	"SFM-400 /S  Advanced mode"
"_SFM"	"Ratio : S1: 2.5, S2: 0, S3: 0, S4: 1"
"_SFM"	"Content : S1: , S2: , S3: , S4:"
"_SFM"	"Concentration : S1: , S2: , S3: , S4:"
"_SFM"	"Total volume : 209 µl  Flow : 3.5 mL/s"
"_SFM"	"Acquisition start :  10 ms before stop"
"_SFM"	"cuve=FC-15, s1=10 ml , s2=10 ml , s3=10 ml , s4=1.9 ml"
"_UNITX"	"s"
"_UNITY"	"Volt"
"_DELTAX"	0
"_DATA"
1e-300	6.17827
0.01	6.59835
0.02	6.7273
0.03	6.72072
0.04	6.75
0.05	6.73585
0.06	6.74605
0.07	6.73454
0.08	6.74144
0.09	6.75263
0.1	6.7546
0.11	6.73881
0.12	6.73881
0.13	6.74408
0.14	6.73947
0.15	6.73158
0.16	6.74704
0.17	6.75394
0.18	6.74539
0.19	6.74704
0.2	6.74901
0.21	6.73092
0.22	6.74111
0.23	6.74177
0.24	6.72796
0.25	6.74934
0.26	6.74375
0.27	6.74835
0.28	6.72763
0.29	6.72006
0.3	6.72697
0.31	6.73848
0.32	6.70953
0.33	6.69342
0.34	6.7171
0.35	6.74572
0.36	6.73256
0.37	6.71085
0.38	6.71315
0.39	6.70328
0.4	6.68914
0.41	6.68618
0.42	6.66315
0.43	6.67302
0.44	6.6569
0.45	6.66348
0.46	6.66414
0.47	6.65888
0.48	6.65032
0.49	6.66578
0.5	6.65526
0.51	6.65592
0.52	6.61644
0.53	6.63519
0.54	6.6421
0.55	6.61348
0.56	6.61644
0.57	6.62565
0.58	6.60723
0.59	6.61907
0.6	6.58881
0.61	6.59999
0.62	6.60131
0.63	6.59045
0.64	6.59276
0.65	6.59341
0.66	6.57729
0.67	6.58881
0.68	6.58618
0.69	6.5717
0.7	6.56085
0.71	6.57203
0.72	6.55591
0.73	6.55164
0.74	6.55295
0.75	6.5444
0.76	6.54012
0.77	6.54703
0.78	6.52367
0.79	6.5217
0.8	6.5092
0.81	6.49703
0.82	6.51973
0.83	6.51282
0.84	6.50887
0.85	6.51381
0.86	6.50131
0.87	6.49407
0.88	6.49341
0.89	6.51611
0.9	6.50295
0.91	6.47334
0.92	6.4865
0.93	6.45723
0.94	6.46973
0.95	6.49637
0.96	6.46315
0.97	6.46282
0.98	6.45098
0.99	6.43222
1	6.43551
1.01	6.44078
1.02	6.43946
1.03	6.42795
1.04	6.43551
1.05	6.43222
1.06	6.41676
1.07	6.41972
1.08	6.40558
1.09	6.37959
1.1	6.38124
1.11	6.38124
1.12	6.38387
1.13	6.399
1.14	6.40361
1.15	6.39143
1.16	6.37893
1.17	6.34834
1.18	6.35854
1.19	6.36643
1.2	6.37203
1.21	6.34472
1.22	6.34406
1.23	6.35722
1.24	6.35689
1.25	6.33946
1.26	6.32301
1.27	6.32202
1.28	6.32992
1.29	6.31413
1.3	6.29702
1.31	6.29604
1.32	6.31281
1.33	6.31577
1.34	6.30887
1.35	6.31248
1.36	6.28584
1.37	6.27926
1.38	6.27235
1.39	6.28781
1.4	6.26479
1.41	6.28452
1.42	6.26479
1.43	6.26742
1.44	6.25919
1.45	6.26511
1.46	6.24998
1.47	6.24636
1.48	6.23781
1.49	6.24406
1.5	6.2365
1.51	6.24505
1.52	6.23353
1.53	6.24373
1.54	6.22597
1.55	6.18913
1.56	6.19406
1.57	6.19472
1.58	6.18551
1.59	6.17893
1.6	6.20919
1.61	6.19143
1.62	6.17926
1.63	6.1888
1.64	6.18057
1.65	6.1832
1.66	6.16478
1.67	6.17235
1.68	6.14537
1.69	6.14011
1.7	6.14176
1.71	6.1582
1.72	6.14373
1.73	6.1388
1.74	6.11445
1.75	6.14307
1.76	6.12136
1.77	6.12728
1.78	6.11741
1.79	6.10129
1.8	6.10129
1.81	6.08847
1.82	6.0786
1.83	6.09406
1.84	6.09768
1.85	6.07169
1.86	6.08386
1.87	6.06939
1.88	6.06478
1.89	6.08485
1.9	6.06083
1.91	6.07004
1.92	6.07498
1.93	6.05458
1.94	6.05787
1.95	6.0559
1.96	6.04833
1.97	6.04669
1.98	6.02925
1.99	6.02333
2	6.02202
2.01	6.0207
2.02	6.03879
2.03	6.01938
2.04	6.00688
2.05	5.99899
2.06	6.00195
2.07	5.98879
2.08	5.99603
2.09	5.97826
2.1	5.98353
2.11	5.98188
2.12	5.98583
2.13	5.97432
2.14	5.95984
2.15	5.93879
2.16	5.97366
2.17	5.95491
2.18	5.96708
2.19	5.95096
2.2	5.93386
2.21	5.94043
2.22	5.93254
2.23	5.92728
2.24	5.92234
2.25	5.91247
2.26	5.92103
2.27	5.90984
2.28	5.91839
2.29	5.91774
2.3	5.87925
2.31	5.8901
2.32	5.89603
2.33	5.89997
2.34	5.86247
2.35	5.88583
2.36	5.88583
2.37	5.8855
2.38	5.87102
2.39	5.86313
2.4	5.87234
2.41	5.85885
2.42	5.84767
2.43	5.84898
2.44	5.85326
2.45	5.848
2.46	5.8276
2.47	5.83221
2.48	5.84273
2.49	5.83944
2.5	5.81905
2.51	5.82563
2.52	5.82431
2.53	5.81444
2.54	5.80951
2.55	5.8105
2.56	5.79602
2.57	5.81806
2.58	5.79569
2.59	5.81642
2.6	5.78451
2.61	5.78582
2.62	5.77727
2.63	5.77826
2.64	5.76148
2.65	5.76214
2.66	5.77596
2.67	5.75622
2.68	5.75128
2.69	5.75885
2.7	5.74207
2.71	5.74109
2.72	5.73944
2.73	5.72892
2.74	5.71576
2.75	5.73845
2.76	5.74964
2.77	5.7174
2.78	5.71707
2.79	5.72694
2.8	5.70688
2.81	5.7072
2.82	5.70424
2.83	5.71773
2.84	5.69306
2.85	5.6901
2.86	5.67628
2.87	5.68944
2.88	5.67661
2.89	5.69405
2.9	5.6924
2.91	5.66477
2.92	5.68582
2.93	5.67924
2.94	5.67957
2.95	5.6674
2.96	5.64075
2.97	5.6447
2.98	5.63516
2.99	5.62825
3	5.62398
3.01	5.6174
3.02	5.61674
3.03	5.62628
3.04	5.63418
3.05	5.61312
3.06	5.60062
3.07	5.59108
3.08	5.58088
3.09	5.59207
3.1	5.59865
3.11	5.58615
3.12	5.57792
3.13	5.5799
3.14	5.59306
3.15	5.56641
3.16	5.55621
3.17	5.56213
3.18	5.55555
3.19	5.55029
3.2	5.53319
3.21	5.54042
3.22	5.55062
3.23	5.5549
3.24	5.52924
3.25	5.54042
3.26	5.54799
3.27	5.54108
3.28	5.53779
3.29	5.52036
3.3	5.52397
3.31	5.5243
3.32	5.52069
3.33	5.50522
3.34	5.50424
3.35	5.50358
3.36	5.50391
3.37	5.49503
3.38	5.4993
3.39	5.49996
3.4	5.4993
3.41	5.47759
3.42	5.48516
3.43	5.48746
3.44	5.4868
3.45	5.47759
3.46	5.48351
3.47	5.45424
3.48	5.45555
3.49	5.44963
3.5	5.44404
3.51	5.46016
3.52	5.45292
3.53	5.45128
3.54	5.4516
3.55	5.44634
3.56	5.43483
3.57	5.422
3.58	5.42002
3.59	5.41312
3.6	5.43549
3.61	5.43845
3.62	5.41739
3.63	5.40884
3.64	5.40391
3.65	5.39601
3.66	5.39469
3.67	5.40193
3.68	5.38877
3.69	5.36805
3.7	5.37134
3.71	5.35719
3.72	5.37858
3.73	5.37101
3.74	5.34864
3.75	5.36673
3.76	5.34963
3.77	5.36213
3.78	5.3743
3.79	5.36871
3.8	5.34404
3.81	5.35259
3.82	5.34042
3.83	5.34568
3.84	5.32528
3.85	5.33318
3.86	5.33482
3.87	5.33318
3.88	5.31706
3.89	5.31311
3.9	5.31311
3.91	5.29864
3.92	5.30653
3.93	5.30489
3.94	5.30917
3.95	5.30522
3.96	5.29502
3.97	5.28351
3.98	5.27397
3.99	5.28088
4	5.26377
4.01	5.29864
4.02	5.29601
4.03	5.2743
4.04	5.26278
4.05	5.25653
4.06	5.24107
4.07	5.24403
4.08	5.24601
4.09	5.23548
4.1	5.24666
4.11	5.24469
4.12	5.26147
4.13	5.25094
4.14	5.24831
4.15	5.23383
4.16	5.23811
4.17	5.2391
4.18	5.23153
4.19	5.22002
4.2	5.23811
4.21	5.22068
4.22	5.20357
4.23	5.2187
4.24	5.21837
4.25	5.23055
4.26	5.18679
4.27	5.1812
4.28	5.18712
4.29	5.196
4.3	5.18021
4.31	5.17495
4.32	5.18054
4.33	5.17298
4.34	5.18021
4.35	5.18943
4.36	5.16607
4.37	5.16015
4.38	5.18548
4.39	5.15554
4.4	5.1641
4.41	5.16771
4.42	5.16015
4.43	5.14304
4.44	5.13679
4.45	5.13252
4.46	5.14041
4.47	5.13054
4.48	5.10357
4.49	5.13317
4.5	5.11475
4.51	5.12265
4.52	5.10587
4.53	5.11212
4.54	5.09666
4.55	5.0812
4.56	5.10653
4.57	5.10258
4.58	5.11344
4.59	5.10225
4.6	5.08745
4.61	5.08482
4.62	5.08482
4.63	5.07922
4.64	5.06574
4.65	5.08251
4.66	5.06409
4.67	5.05686
4.68	5.05521
4.69	5.06771
4.7	5.05455
4.71	5.05554
4.72	5.04764
4.73	5.06015
4.74	5.04567
4.75	5.02955
4.76	5.04896
4.77	5.03383
4.78	5.02758
4.79	5.04567
4.8	5.0335
4.81	5.01179
4.82	5.02725
4.83	5.02824
4.84	5.02166
4.85	5.01245
4.86	5.00093
4.87	5.00883
4.88	5.01606
4.89	5.00488
4.9	4.99699
4.91	4.99633
4.92	4.99402
4.93	4.99205
4.94	4.96804
4.95	4.98712
4.96	5.00653
4.97	4.99139
4.98	4.97823
4.99	4.98152
5	4.96771
5.01	4.97758
5.02	4.98679
5.03	4.96672
5.04	4.96968
5.05	4.94994
5.06	4.95652
5.07	4.97823
5.08	4.9608
5.09	4.95916
5.1	4.95619
5.11	4.96573
5.12	4.93547
5.13	4.93679
5.14	4.95192
5.15	4.92823
5.16	4.9131
5.17	4.92527
5.18	4.92922
5.19	4.92692
5.2	4.9131
5.21	4.90915
5.22	4.92133
5.23	4.91244
5.24	4.89665
5.25	4.90521
5.26	4.91606
5.27	4.90554
5.28	4.90356
5.29	4.89698
5.3	4.89929
5.31	4.89961
5.32	4.88514
5.33	4.88613
5.34	4.8733
5.35	4.88975
5.36	4.88251
5.37	4.87593
5.38	4.8654
5.39	4.85849
5.4	4.89896
5.41	4.88646
5.42	4.87396
5.43	4.87001
5.44	4.86442
5.45	4.85981
5.46	4.84797
5.47	4.84139
5.48	4.84468
5.49	4.85619
5.5	4.85817
5.51	4.85915
5.52	4.85981
5.53	4.8506
5.54	4.85389
5.55	4.84172
5.56	4.83514
5.57	4.83941
5.58	4.82264
5.59	4.83481
5.6	4.81606
5.61	4.82132
5.62	4.82428
5.63	4.81836
5.64	4.83053
5.65	4.81211
5.66	4.81507
5.67	4.80882
5.68	4.80816
5.69	4.79961
5.7	4.78185
5.71	4.80093
5.72	4.78251
5.73	4.79106
5.74	4.7904
5.75	4.78908
5.76	4.78612
5.77	4.79369
5.78	4.78974
5.79	4.77987
5.8	4.78218
5.81	4.77889
5.82	4.76803
5.83	4.77132
5.84	4.77132
5.85	4.77
5.86	4.75224
5.87	4.76343
5.88	4.77066
5.89	4.75389
5.9	4.75158
5.91	4.73645
5.92	4.73448
5.93	4.73283
5.94	4.7427
5.95	4.75981
5.96	4.72921
5.97	4.73678
5.98	4.74731
5.99	4.72066
6	4.7381
6.01	4.73908
6.02	4.73777
6.03	4.71507
6.04	4.69862
6.05	4.72625
6.06	4.72329
6.07	4.70059
6.08	4.69303
6.09	4.70981
6.1	4.70092
6.11	4.70981
6.12	4.71079
6.13	4.69895
6.14	4.71803
6.15	4.69599
6.16	4.70717
6.17	4.6848
6.18	4.69073
6.19	4.68678
6.2	4.69862
6.21	4.66244
6.22	4.6802
6.23	4.66474
6.24	4.67494
6.25	4.66869
6.26	4.6529
6.27	4.65882
6.28	4.68974
6.29	4.67592
6.3	4.66079
6.31	4.65092
6.32	4.63579
6.33	4.64434
6.34	4.63382
6.35	4.64237
6.36	4.65158
6.37	4.64829
6.38	4.66244
6.39	4.63415
6.4	4.6529
6.41	4.64796
6.42	4.64763
6.43	4.64072
6.44	4.63316
6.45	4.63579
6.46	4.63151
6.47	4.6325
6.48	4.62197
6.49	4.61901
6.5	4.6052
6.51	4.61572
6.52	4.62197
6.53	4.61572
6.54	4.62559
6.55	4.59895
6.56	4.5973
6.57	4.60684
6.58	4.61901
6.59	4.60224
6.6	4.60783
6.61	4.6223
6.62	4.59434
6.63	4.60158
6.64	4.62
6.65	4.59171
6.66	4.59467
6.67	4.59105
6.68	4.57658
6.69	4.57921
6.7	4.58316
6.71	4.57592
6.72	4.58908
6.73	4.58612
6.74	4.58217
6.75	4.57888
6.76	4.57724
6.77	4.57428
6.78	4.56835
6.79	4.56441
6.8	4.56539
6.81	4.57197
6.82	4.57296
6.83	4.56572
6.84	4.54598
6.85	4.57033
6.86	4.56309
6.87	4.56276
6.88	4.53842
6.89	4.54039
6.9	4.53019
6.91	4.52394
6.92	4.54533
6.93	4.54434
6.94	4.53612
6.95	4.53184
6.96	4.5325
6.97	4.53151
6.98	4.54566
6.99	4.54006
7	4.49796
7.01	4.48579
7.02	4.5121
7.03	4.52263
7.04	4.52756
7.05	4.51177
7.06	4.52526
7.07	4.52526
7.08	4.50256
7.09	4.50223
7.1	4.5075
7.11	4.50125
7.12	4.50684
7.13	4.48414
7.14	4.49861
7.15	4.5144
7.16	4.51506
7.17	4.49631
7.18	4.49335
7.19	4.495
7.2	4.47526
7.21	4.48348
7.22	4.49565
7.23	4.49006
7.24	4.49236
7.25	4.48809
7.26	4.49763
7.27	4.46703
7.28	4.48315
7.29	4.47296
7.3	4.4519
7.31	4.46605
7.32	4.46243
7.33	4.48776
7.34	4.47394
7.35	4.46013
7.36	4.46342
7.37	4.45651
7.38	4.45552
7.39	4.44796
7.4	4.46671
7.41	4.44171
7.42	4.45519
7.43	4.44401
7.44	4.45256
7.45	4.44894
7.46	4.44861
7.47	4.43809
7.48	4.43545
7.49	4.43776
7.5	4.43249
7.51	4.44105
7.52	4.42657
7.53	4.41473
7.54	4.43743
7.55	4.43217
7.56	4.42065
7.57	4.42756
7.58	4.42723
7.59	4.42953
7.6	4.43315
7.61	4.41111
7.62	4.43019
7.63	4.42164
7.64	4.4167
7.65	4.42427
7.66	4.41999
7.67	4.42131
7.68	4.40552
7.69	4.40091
7.7	4.37855
7.71	4.41177
7.72	4.39894
7.73	4.39532
7.74	4.39894
7.75	4.39795
7.76	4.40519
7.77	4.39137
7.78	4.3973
7.79	4.37887
7.8	4.38743
7.81	4.40026
7.82	4.39401
7.83	4.39335
7.84	4.39401
7.85	4.38677
7.86	4.38874
7.87	4.39828
7.88	4.3792
7.89	4.36473
7.9	4.37394
7.91	4.36901
7.92	4.36802
7.93	4.37197
7.94	4.38085
7.95	4.39466
7.96	4.35914
7.97	4.37197
7.98	4.36966
7.99	4.35651
8	4.36604
8.01	4.3792
8.02	4.36045
8.03	4.34039
8.04	4.35025
8.05	4.37887
8.06	4.36868
8.07	4.35025
8.08	4.3621
8.09	4.35815
8.1	4.33578
8.11	4.33907
8.12	4.34565
8.13	4.34532
8.14	4.35552
8.15	4.34137
8.16	4.33216
8.17	4.31341
8.18	4.31571
8.19	4.31341
8.2	4.33545
8.21	4.33611
8.22	4.33907
8.23	4.35025
8.24	4.34203
8.25	4.30881
8.26	4.34598
8.27	4.33414
8.28	4.33545
8.29	4.32789
8.3	4.32887
8.31	4.31999
8.32	4.33183
8.33	4.32986
8.34	4.31407
8.35	4.2894
8.36	4.31835
8.37	4.30223
8.38	4.30815
8.39	4.30848
8.4	4.3019
8.41	4.30453
8.42	4.31078
8.43	4.31308
8.44	4.29532
8.45	4.31012
8.46	4.30683
8.47	4.3019
8.48	4.30815
8.49	4.27624
8.5	4.29532
8.51	4.29302
8.52	4.28249
8.53	4.30321
8.54	4.28282
8.55	4.29598
8.56	4.29762
8.57	4.28183
8.58	4.27525
8.59	4.28874
8.6	4.30749
8.61	4.28084
8.62	4.28578
8.63	4.28907
8.64	4.28446
8.65	4.26999
8.66	4.28907
8.67	4.27262
8.68	4.26505
8.69	4.25749
8.7	4.26407
8.71	4.28019
8.72	4.25782
8.73	4.26604
8.74	4.26374
8.75	4.28446
8.76	4.26834
8.77	4.28973
8.78	4.26144
8.79	4.26209
8.8	4.28019
8.81	4.26933
8.82	4.27196
8.83	4.26736
8.84	4.25946
8.85	4.2542
8.86	4.25683
8.87	4.25815
8.88	4.2519
8.89	4.25683
8.9	4.25584
8.91	4.24565
8.92	4.24696
8.93	4.25223
8.94	4.24005
8.95	4.23051
8.96	4.23676
8.97	4.22986
8.98	4.2213
8.99	4.24038
9	4.23019
9.01	4.23775
9.02	4.23709
9.03	4.23282
9.04	4.21801
9.05	4.22394
9.06	4.22788
9.07	4.22492
9.08	4.2315
9.09	4.23874
9.1	4.23315
9.11	4.2269
9.12	4.22032
9.13	4.23183
9.14	4.22394
9.15	4.21374
9.16	4.22591
9.17	4.2315
9.18	4.21407
9.19	4.20321
9.2	4.21374
9.21	4.21472
9.22	4.22624
9.23	4.22229
9.24	4.20913
9.25	4.21176
9.26	4.21637
9.27	4.20847
9.28	4.22196
9.29	4.2065
9.3	4.20058
9.31	4.20124
9.32	4.19071
9.33	4.21209
9.34	4.18347
9.35	4.17788
9.36	4.18347
9.37	4.18282
9.38	4.18314
9.39	4.1736
9.4	4.19729
9.41	4.18643
9.42	4.18808
9.43	4.18216
9.44	4.18874
9.45	4.19301
9.46	4.18216
9.47	4.18117
9.48	4.1792
9.49	4.18512
9.5	4.1713
9.51	4.17459
9.52	4.17591
9.53	4.16374
9.54	4.16703
9.55	4.16406
9.56	4.18643
9.57	4.17229
9.58	4.17064
9.59	4.16933
9.6	4.17887
9.61	4.17624
9.62	4.15913
9.63	4.16341
9.64	4.16078
9.65	4.17229
9.66	4.18676
9.67	4.17163
9.68	4.17558
9.69	4.17064
9.7	4.17624
9.71	4.15584
9.72	4.16045
9.73	4.19203
9.74	4.16209
9.75	4.16341
9.76	4.16571
9.77	4.16143
9.78	4.16374
9.79	4.16406
9.8	4.16012
9.81	4.17492
9.82	4.17788
9.83	4.16637
9.84	4.1417
9.85	4.14663
9.86	4.15749
9.87	4.15485
9.88	4.14531
9.89	4.13874
9.9	4.14301
9.91	4.14466
9.92	4.14795
9.93	4.13577
9.94	4.13446
9.95	4.12985
9.96	4.12525
9.97	4.1542
9.98	4.144
9.99	4.14795
10	4.14071
10.01	4.13972
10.02	4.13512
10.03	4.14334
10.04	4.1361
10.05	4.14433
10.06	4.13906
10.07	4.12788
10.08	4.12163
10.09	4.12656
10.1	4.12821
10.11	4.13018
10.12	4.13742
10.13	4.1338
10.14	4.13413
10.15	4.1361
10.16	4.12623
10.17	4.10913
10.18	4.13216
10.19	4.10584
10.2	4.10979
10.21	4.13643
10.22	4.12525
10.23	4.12097
10.24	4.1065
10.25	4.12229
10.26	4.11373
10.27	4.10617
10.28	4.11209
10.29	4.1111
10.3	4.11966
10.31	4.1065
10.32	4.09926
10.33	4.11406
10.34	4.13216
10.35	4.12196
10.36	4.10584
10.37	4.10584
10.38	4.1088
10.39	4.10748
10.4	4.1088
10.41	4.12426
10.42	4.12097
10.43	4.10387
10.44	4.08577
10.45	4.08742
10.46	4.10485
10.47	4.11209
10.48	4.08544
10.49	4.09959
10.5	4.09071
10.51	4.09038
10.52	4.09597
10.53	4.10584
10.54	4.09696
10.55	4.08939
10.56	4.11044
10.57	4.0884
10.58	4.07886
10.59	4.10946
10.6	4.09465
10.61	4.1088
10.62	4.09531
10.63	4.09564
10.64	4.08676
10.65	4.08413
10.66	4.09729
10.67	4.07327
10.68	4.0759
10.69	4.08972
10.7	4.0713
10.71	4.06472
10.72	4.07722
10.73	4.07886
10.74	4.0759
10.75	4.07656
10.76	4.09498
10.77	4.07689
10.78	4.08183
10.79	4.07294
10.8	4.06998
10.81	4.08215
10.82	4.07689
10.83	4.0963
10.84	4.07821
10.85	4.07229
10.86	4.06472
10.87	4.05321
10.88	4.06702
10.89	4.06209
10.9	4.06636
10.91	4.07163
10.92	4.07294
10.93	4.06636
10.94	4.06439
10.95	4.0588
10.96	4.06571
10.97	4.05452
10.98	4.06636
10.99	4.04531
11	4.04926
11.01	4.06538
11.02	4.06143
11.03	4.07656
11.04	4.06636
11.05	4.04597
11.06	4.04696
11.07	4.05419
11.08	4.0588
11.09	4.03643
11.1	4.05979
11.11	4.04893
11.12	4.03972
11.13	4.04531
11.14	4.06209
11.15	4.06044
11.16	4.0338
11.17	4.05386
11.18	4.05189
11.19	4.05617
11.2	4.05518
11.21	4.05715
11.22	4.04926
11.23	4.03873
11.24	4.06735
11.25	4.04564
11.26	4.0361
11.27	4.05847
11.28	4.03807
11.29	4.03314
11.3	4.05255
11.31	4.06242
11.32	4.06439
11.33	4.05386
11.34	4.04761
11.35	4.03413
11.36	4.03084
11.37	4.0361
11.38	4.03018
11.39	4.04498
11.4	4.04959
11.41	4.04038
11.42	4.03577
11.43	4.04169
11.44	4.04005
11.45	4.04103
11.46	4.02886
11.47	4.01867
11.48	4.01899
11.49	4.03347
11.5	4.01899
11.51	4.03215
11.52	4.03544
11.53	4.02426
11.54	4.04301
11.55	4.03577
11.56	4.03446
11.57	4.03215
11.58	4.03314
11.59	4.03413
11.6	4.0213
11.61	4.04071
11.62	4.03446
11.63	4.02492
11.64	4.01932
11.65	4.02557
11.66	4.02985
11.67	4.03478
11.68	4.02031
11.69	4.02261
11.7	4.03643
11.71	4.02228
11.72	4.00781
11.73	4.00913
11.74	4.00649
11.75	4.00452
11.76	3.99794
11.77	4.02393
11.78	4.0111
11.79	4.00189
11.8	4.00913
11.81	4.01538
11.82	4.02524
11.83	4.00847
11.84	4.00452
11.85	4.00551
11.86	4.01899
11.87	4.01143
11.88	4.02064
11.89	4.01077
11.9	4.01044
11.91	4.00847
11.92	3.99202
11.93	4.00024
11.94	3.9963
11.95	3.99334
11.96	4.00781
11.97	4.01472
11.98	4.01274
11.99	4.01603
12	3.99399
12.01	3.98709
12.02	4.00386
12.03	4.0009
12.04	4.00452
12.05	4.01077
12.06	4.00189
12.07	4.00584
12.08	3.98774
12.09	4.00057
12.1	4.00353
12.11	4.00057
12.12	4.00123
12.13	3.99301
12.14	3.99564
12.15	4.00452
12.16	3.98182
12.17	3.98774
12.18	3.97722
12.19	3.98314
12.2	3.99169
12.21	3.99465
12.22	3.98741
12.23	3.99432
12.24	3.99268
12.25	3.98347
12.26	3.97327
12.27	4.00123
12.28	3.98972
12.29	3.99202
12.3	3.98741
12.31	3.98741
12.32	3.98511
12.33	3.98577
12.34	3.98807
12.35	3.98676
12.36	3.99531
12.37	4.01209
12.38	3.98182
12.39	3.98972
12.4	3.99169
12.41	3.98873
12.42	3.99761
12.43	3.99038
12.44	3.98182
12.45	3.98215
12.46	3.98215
12.47	3.98807
12.48	3.99827
12.49	3.99959
12.5	3.98051
12.51	3.9736
12.52	3.97162
12.53	3.96241
12.54	3.97985
12.55	3.99827
12.56	3.98182
12.57	3.98577
12.58	3.97261
12.59	3.97952
12.6	3.96998
12.61	3.9407
12.62	3.97031
12.63	3.97656
12.64	3.96636
12.65	3.97228
12.66	3.96932
12.67	3.97853
12.68	3.98412
12.69	3.97393
12.7	3.97327
12.71	3.95583
12.72	3.97459
12.73	3.9588
12.74	3.96899
12.75	3.97162
12.76	3.9736
12.77	3.97623
12.78	3.97689
12.79	3.96241
12.8	3.98149
12.81	3.98544
12.82	3.96307
12.83	3.97097
12.84	3.97623
12.85	3.98116
12.86	3.97294
12.87	3.97097
12.88	3.95386
12.89	3.95485
12.9	3.95978
12.91	3.9532
12.92	3.95715
12.93	3.95649
12.94	3.95057
12.95	3.96702
12.96	3.9532
12.97	3.96044
12.98	3.96702
12.99	3.95649
13	3.95912
13.01	3.96965
13.02	3.96143
13.03	3.96505
13.04	3.96768
13.05	3.96373
13.06	3.96801
13.07	3.96965
13.08	3.95189
13.09	3.96603
13.1	3.94465
13.11	3.95287
13.12	3.96603
13.13	3.9588
13.14	3.95222
13.15	3.94794
13.16	3.94893
13.17	3.94662
13.18	3.92393
13.19	3.9384
13.2	3.94498
13.21	3.94893
13.22	3.95419
13.23	3.94893
13.24	3.95682
13.25	3.94761
13.26	3.94827
13.27	3.95781
13.28	3.95781
13.29	3.93807
13.3	3.93347
13.31	3.96406
13.32	3.94958
13.33	3.95353
13.34	3.96439
13.35	3.95551
13.36	3.94794
13.37	3.9486
13.38	3.94103
13.39	3.94958
13.4	3.94202
13.41	3.93807
13.42	3.9384
13.43	3.93412
13.44	3.93379
13.45	3.94301
13.46	3.95814
13.47	3.96505
13.48	3.95156
13.49	3.94991
13.5	3.94958
13.51	3.94991
13.52	3.92294
13.53	3.93708
13.54	3.93248
13.55	3.93873
13.56	3.92722
13.57	3.94629
13.58	3.93379
13.59	3.93478
13.6	3.91866
13.61	3.93281
13.62	3.93182
13.63	3.92294
13.64	3.93116
13.65	3.93774
13.66	3.91241
13.67	3.93083
13.68	3.91702
13.69	3.92031
13.7	3.92294
13.71	3.93248
13.72	3.93412
13.73	3.93478
13.74	3.9384
13.75	3.94926
13.76	3.94366
13.77	3.9259
13.78	3.93248
13.79	3.91669
13.8	3.91735
13.81	3.91899
13.82	3.92195
13.83	3.91537
13.84	3.93544
13.85	3.93873
13.86	3.91702
13.87	3.9305
13.88	3.91208
13.89	3.93807
13.9	3.92458
13.91	3.91241
13.92	3.91439
13.93	3.92656
13.94	3.93412
13.95	3.94004
13.96	3.9259
13.97	3.92425
13.98	3.93675
13.99	3.93182
14	3.9236
14.01	3.918
14.02	3.93577
14.03	3.92491
14.04	3.92261
14.05	3.92491
14.06	3.92919
14.07	3.91406
14.08	3.90748
14.09	3.91077
14.1	3.9134
14.11	3.91504
14.12	3.91932
14.13	3.91274
14.14	3.91998
14.15	3.918
14.16	3.93116
14.17	3.92557
14.18	3.92129
14.19	3.92261
14.2	3.9157
14.21	3.90879
14.22	3.92327
14.23	3.91603
14.24	3.91471
14.25	3.91175
14.26	3.91406
14.27	3.90814
14.28	3.90156
14.29	3.90123
14.3	3.91998
14.31	3.92689
14.32	3.91702
14.33	3.90814
14.34	3.91077
14.35	3.89794
14.36	3.88445
14.37	3.91636
14.38	3.91636
14.39	3.92491
14.4	3.92031
14.41	3.91636
14.42	3.90254
14.43	3.92096
14.44	3.90912
14.45	3.90814
14.46	3.90419
14.47	3.91669
14.48	3.90583
14.49	3.89827
14.5	3.91406
14.51	3.90123
14.52	3.89366
14.53	3.89531
14.54	3.91011
14.55	3.9032
14.56	3.91965
14.57	3.91373
14.58	3.90353
14.59	3.90879
14.6	3.88281
14.61	3.90386
14.62	3.90583
14.63	3.90748
14.64	3.91833
14.65	3.90912
14.66	3.88445
14.67	3.88412
14.68	3.9009
14.69	3.89728
14.7	3.89892
14.71	3.88807
14.72	3.9009
14.73	3.90583
14.74	3.91208
14.75	3.8907
14.76	3.88313
14.77	3.89235
14.78	3.90123
14.79	3.89465
14.8	3.88577
14.81	3.90254
14.82	3.90912
14.83	3.90189
14.84	3.89333
14.85	3.89695
14.86	3.90879
14.87	3.91537
14.88	3.90221
14.89	3.89399
14.9	3.88281
14.91	3.91439
14.92	3.90846
14.93	3.89794
14.94	3.89827
14.95	3.88807
14.96	3.88906
14.97	3.89531
14.98	3.90814
14.99	3.89892
15	3.88938
15.01	3.89333
15.02	3.90287
15.03	3.89827
15.04	3.89432
15.05	3.87787
15.06	3.87228
15.07	3.87294
15.08	3.88938
15.09	3.88675
15.1	3.88445
15.11	3.89333
15.12	3.88412
15.13	3.8805
15.14	3.87623
15.15	3.89662
15.16	3.88938
15.17	3.89136
15.18	3.8759
15.19	3.88116
15.2	3.88642
15.21	3.89498
15.22	3.90353
15.23	3.89498
15.24	3.87754
15.25	3.868
15.26	3.87228
15.27	3.85879
15.28	3.89892
15.29	3.90682
15.3	3.88971
15.31	3.88445
15.32	3.89564
15.33	3.90287
15.34	3.89366
15.35	3.89629
15.36	3.88215
15.37	3.88215
15.38	3.8907
15.39	3.88544
15.4	3.90024
15.41	3.89531
15.42	3.87458
15.43	3.88873
15.44	3.87952
15.45	3.88675
15.46	3.89399
15.47	3.89267
15.48	3.88544
15.49	3.87623
15.5	3.87853
15.51	3.88708
15.52	3.8759
15.53	3.86669
15.54	3.89004
15.55	3.88379
15.56	3.8884
15.57	3.88116
15.58	3.87096
15.59	3.88313
15.6	3.88971
15.61	3.89037
15.62	3.87557
15.63	3.88741
15.64	3.88971
15.65	3.87656
15.66	3.88544
15.67	3.90057
15.68	3.90057
15.69	3.8782
15.7	3.87524
15.71	3.88182
15.72	3.87952
15.73	3.88544
15.74	3.8884
15.75	3.88083
15.76	3.86603
15.77	3.87261
15.78	3.8657
15.79	3.88116
15.8	3.89235
15.81	3.88281
15.82	3.88379
15.83	3.88577
15.84	3.86767
15.85	3.88544
15.86	3.86734
15.87	3.8657
15.88	3.87688
15.89	3.89267
15.9	3.8782
15.91	3.8657
15.92	3.8578
15.93	3.86241
15.94	3.87096
15.95	3.8907
15.96	3.86307
15.97	3.86307
15.98	3.88083
15.99	3.88741
16	3.89564
16.01	3.87952
16.02	3.87327
16.03	3.87952
16.04	3.87491
16.05	3.85912
16.06	3.87228
16.07	3.86438
16.08	3.86998
16.09	3.85682
16.1	3.86471
16.11	3.88116
16.12	3.8782
16.13	3.88675
16.14	3.89827
16.15	3.85978
16.16	3.85945
16.17	3.87228
16.18	3.85419
16.19	3.8532
16.2	3.86998
16.21	3.87919
16.22	3.86998
16.23	3.87162
16.24	3.86866
16.25	3.86669
16.26	3.87425
16.27	3.86438
16.28	3.87754
16.29	3.86373
16.3	3.86669
16.31	3.86406
16.32	3.843
16.33	3.85978
16.34	3.86537
16.35	3.87031
16.36	3.86899
16.37	3.87656
16.38	3.8657
16.39	3.87294
16.4	3.86406
16.41	3.86833
16.42	3.87228
16.43	3.85945
16.44	3.86142
16.45	3.8578
16.46	3.86044
16.47	3.87524
16.48	3.88017
16.49	3.8805
16.5	3.84761
16.51	3.85616
16.52	3.84794
16.53	3.87491
16.54	3.84827
16.55	3.87129
16.56	3.8509
16.57	3.85682
16.58	3.85419
16.59	3.86866
16.6	3.86702
16.61	3.87623
16.62	3.87721
16.63	3.84037
16.64	3.84169
16.65	3.85682
16.66	3.84695
16.67	3.85879
16.68	3.86767
16.69	3.83807
16.7	3.84037
16.71	3.85254
16.72	3.84004
16.73	3.85813
16.74	3.84827
16.75	3.86241
16.76	3.87359
16.77	3.86866
16.78	3.85912
16.79	3.84794
16.8	3.87491
16.81	3.86998
16.82	3.85978
16.83	3.86109
16.84	3.85484
16.85	3.85287
16.86	3.87491
16.87	3.85649
16.88	3.86833
16.89	3.84794
16.9	3.85287
16.91	3.84563
16.92	3.85254
16.93	3.85188
16.94	3.83873
16.95	3.86438
16.96	3.85846
16.97	3.8532
16.98	3.86274
16.99	3.85484
17	3.85386
17.01	3.8578
17.02	3.84662
17.03	3.86537
17.04	3.84991
17.05	3.84859
17.06	3.84925
17.07	3.85978
17.08	3.86406
17.09	3.85386
17.1	3.8634
17.11	3.87327
17.12	3.86274
17.13	3.85452
17.14	3.86471
17.15	3.86011
17.16	3.86438
17.17	3.86636
17.18	3.86734
17.19	3.85846
17.2	3.84728
17.21	3.8555
17.22	3.84366
17.23	3.84794
17.24	3.86044
17.25	3.84004
17.26	3.86833
17.27	3.86011
17.28	3.8578
17.29	3.86504
17.3	3.8532
17.31	3.84465
17.32	3.85484
17.33	3.8555
17.34	3.84794
17.35	3.8328
17.36	3.84892
17.37	3.84103
17.38	3.85188
17.39	3.85254
17.4	3.84761
17.41	3.83905
17.42	3.84366
17.43	3.85616
17.44	3.85024
17.45	3.83741
17.46	3.83675
17.47	3.85057
17.48	3.8328
17.49	3.843
17.5	3.83215
17.51	3.84103
17.52	3.86241
17.53	3.86274
17.54	3.84892
17.55	3.84728
17.56	3.85155
17.57	3.8305
17.58	3.8407
17.59	3.84563
17.6	3.84366
17.61	3.85649
17.62	3.85155
17.63	3.85123
17.64	3.85748
17.65	3.86241
17.66	3.83708
17.67	3.8532
17.68	3.84399
17.69	3.86406
17.7	3.85945
17.71	3.83971
17.72	3.8509
17.73	3.843
17.74	3.83741
17.75	3.84925
17.76	3.85978
17.77	3.84596
17.78	3.84991
17.79	3.85353
17.8	3.84728
17.81	3.84399
17.82	3.83774
17.83	3.83807
17.84	3.83971
17.85	3.84827
17.86	3.84958
17.87	3.85748
17.88	3.8453
17.89	3.85912
17.9	3.83774
17.91	3.82984
17.92	3.85123
17.93	3.86109
17.94	3.85583
17.95	3.84859
17.96	3.86603
17.97	3.84399
17.98	3.84761
17.99	3.8509
18	3.83346
18.01	3.83807
18.02	3.8509
18.03	3.84662
18.04	3.85024
18.05	3.84859
18.06	3.8305
18.07	3.84399
18.08	3.85978
18.09	3.84859
18.1	3.83511
18.11	3.84333
18.12	3.83807
18.13	3.85057
18.14	3.85912
18.15	3.83971
18.16	3.8453
18.17	3.83017
18.18	3.84201
18.19	3.83971
18.2	3.8453
18.21	3.83017
18.22	3.84728
18.23	3.84761
18.24	3.83511
18.25	3.843
18.26	3.83708
18.27	3.8407
18.28	3.82984
18.29	3.84366
18.3	3.8305
18.31	3.82063
18.32	3.82951
18.33	3.84333
18.34	3.84629
18.35	3.84794
18.36	3.8305
18.37	3.82129
18.38	3.83445
18.39	3.83511
18.4	3.85024
18.41	3.84399
18.42	3.84004
18.43	3.84728
18.44	3.83642
18.45	3.83807
18.46	3.84004
18.47	3.84925
18.48	3.8578
18.49	3.84563
18.5	3.84498
18.51	3.84958
18.52	3.8384
18.53	3.83971
18.54	3.84991
18.55	3.86899
18.56	3.84662
18.57	3.82853
18.58	3.8282
18.59	3.82754
18.6	3.82951
18.61	3.82491
18.62	3.83511
18.63	3.84695
18.64	3.83215
18.65	3.82096
18.66	3.83675
18.67	3.83609
18.68	3.82951
18.69	3.8203
18.7	3.83445
18.71	3.8305
18.72	3.82359
18.73	3.82721
18.74	3.82655
18.75	3.83576
18.76	3.84366
18.77	3.8259
18.78	3.82129
18.79	3.82721
18.8	3.83642
18.81	3.83807
18.82	3.83215
18.83	3.83642
18.84	3.84991
18.85	3.82919
18.86	3.83445
18.87	3.82195
18.88	3.83215
18.89	3.83905
18.9	3.83215
18.91	3.82524
18.92	3.82392
18.93	3.8305
18.94	3.83609
18.95	3.83248
18.96	3.82919
18.97	3.84169
18.98	3.84662
18.99	3.82425
19	3.82688
19.01	3.81833
19.02	3.83675
19.03	3.82951
19.04	3.82491
19.05	3.82359
19.06	3.82623
19.07	3.80583
19.08	3.82458
19.09	3.83478
19.1	3.83905
19.11	3.82228
19.12	3.818
19.13	3.83544
19.14	3.83576
19.15	3.82458
19.16	3.82787
19.17	3.82359
19.18	3.83807
19.19	3.83313
19.2	3.83807
19.21	3.82984
19.22	3.81932
19.23	3.83017
19.24	3.84234
19.25	3.85155
19.26	3.83741
19.27	3.82688
19.28	3.83017
19.29	3.82491
19.3	3.81537
19.31	3.8259
19.32	3.81636
19.33	3.83576
19.34	3.82359
19.35	3.82458
19.36	3.82326
19.37	3.83478
19.38	3.82655
19.39	3.81833
19.4	3.80682
19.41	3.83083
19.42	3.82359
19.43	3.83445
19.44	3.82294
19.45	3.8259
19.46	3.82162
19.47	3.82195
19.48	3.83379
19.49	3.80978
19.5	3.818
19.51	3.81603
19.52	3.82919
19.53	3.83313
19.54	3.82294
19.55	3.83149
19.56	3.81044
19.57	3.81142
19.58	3.81537
19.59	3.82392
19.6	3.81866
19.61	3.80583
19.62	3.82853
19.63	3.81044
19.64	3.80978
19.65	3.80583
19.66	3.80221
19.67	3.83215
19.68	3.83905
19.69	3.82063
19.7	3.81899
19.71	3.8305
19.72	3.82655
19.73	3.83905
19.74	3.82195
19.75	3.81767
19.76	3.83379
19.77	3.83873
19.78	3.8157
19.79	3.80715
19.8	3.82655
19.81	3.82557
19.82	3.81175
19.83	3.80747
19.84	3.81307
19.85	3.81372
19.86	3.8282
19.87	3.83182
19.88	3.82688
19.89	3.8259
19.9	3.83017
19.91	3.80682
19.92	3.82228
19.93	3.81636
19.94	3.82623
19.95	3.82326
19.96	3.82063
19.97	3.82491
19.98	3.81866
19.99	3.81734
20	3.82261
20.01	3.81997
20.02	3.81471
20.03	3.82919
20.04	3.82261
20.05	3.81109
20.06	3.81833
20.07	3.82425
20.08	3.82623
20.09	3.80879
20.1	3.82359
20.11	3.81142
20.12	3.81471
20.13	3.82951
20.14	3.82425
20.15	3.81767
20.16	3.81142
20.17	3.81241
20.18	3.8282
20.19	3.82655
20.2	3.8282
20.21	3.82425
20.22	3.81142
20.23	3.81537
20.24	3.82129
20.25	3.8259
20.26	3.80813
20.27	3.83248
20.28	3.82557
20.29	3.81899
20.3	3.82294
20.31	3.82063
20.32	3.82096
20.33	3.82228
20.34	3.81274
20.35	3.81932
20.36	3.82129
20.37	3.818
20.38	3.80188
20.39	3.82162
20.4	3.8203
20.41	3.81965
20.42	3.80451
20.43	3.80484
20.44	3.81767
20.45	3.80583
20.46	3.82162
20.47	3.80616
20.48	3.81142
20.49	3.82425
20.5	3.82063
20.51	3.80912
20.52	3.79793
20.53	3.8134
20.54	3.82195
20.55	3.818
20.56	3.81866
20.57	3.81603
20.58	3.82359
20.59	3.8259
20.6	3.81669
20.61	3.81767
20.62	3.81537
20.63	3.82261
20.64	3.81767
20.65	3.81965
20.66	3.82853
20.67	3.82326
20.68	3.80912
20.69	3.8157
20.7	3.79892
20.71	3.80353
20.72	3.81636
20.73	3.81899
20.74	3.79629
20.75	3.8203
20.76	3.80155
20.77	3.81372
20.78	3.81504
20.79	3.81932
20.8	3.83215
20.81	3.81175
20.82	3.81833
20.83	3.80484
20.84	3.80747
20.85	3.82425
20.86	3.82096
20.87	3.82326
20.88	3.81636
20.89	3.82491
20.9	3.81307
20.91	3.82228
20.92	3.81175
20.93	3.82984
20.94	3.81997
20.95	3.81175
20.96	3.81372
20.97	3.80682
20.98	3.80945
20.99	3.79695
21	3.80813
21.01	3.81932
21.02	3.80879
21.03	3.82557
21.04	3.82359
21.05	3.81109
21.06	3.79892
21.07	3.79991
21.08	3.82853
21.09	3.82162
21.1	3.81537
21.11	3.81767
21.12	3.80715
21.13	3.80254
21.14	3.81208
21.15	3.79958
21.16	3.80484
21.17	3.80978
21.18	3.82458
21.19	3.81965
21.2	3.81767
21.21	3.81701
21.22	3.81274
21.23	3.81142
21.24	3.79596
21.25	3.81241
21.26	3.81603
21.27	3.82359
21.28	3.82129
21.29	3.81142
21.3	3.81044
21.31	3.8009
21.32	3.8157
21.33	3.81603
21.34	3.81438
21.35	3.8055
21.36	3.79465
21.37	3.80353
21.38	3.8078
21.39	3.81471
21.4	3.80616
21.41	3.80353
21.42	3.81241
21.43	3.80945
21.44	3.80287
21.45	3.81011
21.46	3.80221
21.47	3.79826
21.48	3.79465
21.49	3.81537
21.5	3.81076
21.51	3.80978
21.52	3.79761
21.53	3.79859
21.54	3.80715
21.55	3.8055
21.56	3.80813
21.57	3.80649
21.58	3.81109
21.59	3.81274
21.6	3.81438
21.61	3.80353
21.62	3.82754
21.63	3.80813
21.64	3.8055
21.65	3.79859
21.66	3.79761
21.67	3.80484
21.68	3.80813
21.69	3.79432
21.7	3.79925
21.71	3.79596
21.72	3.79497
21.73	3.80583
21.74	3.8009
21.75	3.80682
21.76	3.81932
21.77	3.81438
21.78	3.8032
21.79	3.79859
21.8	3.79399
21.81	3.78412
21.82	3.78839
21.83	3.81044
21.84	3.81734
21.85	3.80583
21.86	3.81669
21.87	3.80057
21.88	3.80353
21.89	3.80747
21.9	3.79991
21.91	3.80813
21.92	3.81044
21.93	3.81438
21.94	3.81142
21.95	3.80912
21.96	3.81208
21.97	3.80945
21.98	3.81372
21.99	3.81011
22	3.80583
22.01	3.80978
22.02	3.80024
22.03	3.793
22.04	3.8009
22.05	3.8203
22.06	3.81044
22.07	3.80616
22.08	3.81175
22.09	3.78938
22.1	3.80583
22.11	3.80221
22.12	3.79136
22.13	3.78807
22.14	3.79103
22.15	3.81537
22.16	3.82096
22.17	3.8078
22.18	3.81241
22.19	3.79859
22.2	3.81307
22.21	3.81109
22.22	3.81471
22.23	3.79168
22.24	3.81175
22.25	3.80616
22.26	3.80583
22.27	3.81011
22.28	3.80386
22.29	3.81307
22.3	3.80715
22.31	3.81011
22.32	3.80122
22.33	3.80649
22.34	3.80287
22.35	3.80846
22.36	3.81109
22.37	3.82162
22.38	3.80583
22.39	3.80418
22.4	3.79333
22.41	3.81142
22.42	3.79761
22.43	3.80122
22.44	3.80682
22.45	3.81175
22.46	3.8134
22.47	3.80649
22.48	3.80057
22.49	3.78741
22.5	3.79695
22.51	3.80715
22.52	3.82129
22.53	3.80484
22.54	3.78642
22.55	3.79333
22.56	3.79826
22.57	3.79695
22.58	3.79925
22.59	3.80155
22.6	3.80221
22.61	3.80057
22.62	3.78905
22.63	3.79991
22.64	3.80353
22.65	3.79662
22.66	3.79465
22.67	3.79465
22.68	3.79728
22.69	3.79333
22.7	3.79399
22.71	3.79267
22.72	3.79037
22.73	3.78905
22.74	3.80057
22.75	3.78478
22.76	3.79596
22.77	3.80583
22.78	3.80155
22.79	3.77886
22.8	3.78642
22.81	3.78247
22.82	3.79629
22.83	3.79366
22.84	3.79004
22.85	3.81372
22.86	3.80517
22.87	3.79399
22.88	3.78872
22.89	3.79859
22.9	3.80057
22.91	3.78543
22.92	3.79958
22.93	3.80386
22.94	3.80057
22.95	3.79793
22.96	3.78741
22.97	3.79234
22.98	3.79662
22.99	3.7907
23	3.80122
23.01	3.80155
23.02	3.79399
23.03	3.7828
23.04	3.78445
23.05	3.79399
23.06	3.82294
23.07	3.79892
23.08	3.78609
23.09	3.793
23.1	3.78905
23.11	3.80418
23.12	3.80155
23.13	3.79695
23.14	3.79761
23.15	3.79234
23.16	3.79136
23.17	3.79234
23.18	3.79728
23.19	3.80682
23.2	3.79596
23.21	3.793
23.22	3.78576
23.23	3.80188
23.24	3.80484
23.25	3.79596
23.26	3.79925
23.27	3.80155
23.28	3.7907
23.29	3.80451
23.3	3.80188
23.31	3.79958
23.32	3.79399
23.33	3.79892
23.34	3.79465
23.35	3.79892
23.36	3.793
23.37	3.81537
23.38	3.80451
23.39	3.80649
23.4	3.80386
23.41	3.78642
23.42	3.79333
23.43	3.80813
23.44	3.79596
23.45	3.79103
23.46	3.79333
23.47	3.81504
23.48	3.80155
23.49	3.79201
23.5	3.78083
23.51	3.77162
23.52	3.77129
23.53	3.78478
23.54	3.78083
23.55	3.76964
23.56	3.79267
23.57	3.80353
23.58	3.81438
23.59	3.79793
23.6	3.79761
23.61	3.78511
23.62	3.77392
23.63	3.79497
23.64	3.80846
23.65	3.79761
23.66	3.81175
23.67	3.78807
23.68	3.78511
23.69	3.79399
23.7	3.79234
23.71	3.78774
23.72	3.78839
23.73	3.80254
23.74	3.78214
23.75	3.79168
23.76	3.77425
23.77	3.78872
23.78	3.79103
23.79	3.78346
23.8	3.79037
23.81	3.78741
23.82	3.79563
23.83	3.80353
23.84	3.79432
23.85	3.79366
23.86	3.78478
23.87	3.78346
23.88	3.79201
23.89	3.79991
23.9	3.79859
23.91	3.79991
23.92	3.78872
23.93	3.79103
23.94	3.77951
23.95	3.77557
23.96	3.79333
23.97	3.80715
23.98	3.79465
23.99	3.80287
24	3.80978
24.01	3.79333
24.02	3.79432
24.03	3.79563
24.04	3.79892
24.05	3.78379
24.06	3.77688
24.07	3.76701
24.08	3.79103
24.09	3.79859
24.1	3.7782
24.11	3.78576
24.12	3.79103
24.13	3.78675
24.14	3.80155
24.15	3.81142
24.16	3.79629
24.17	3.79826
24.18	3.80616
24.19	3.7907
24.2	3.79136
24.21	3.79958
24.22	3.79004
24.23	3.79432
24.24	3.79662
24.25	3.80221
24.26	3.79728
24.27	3.8009
24.28	3.80583
24.29	3.78839
24.3	3.79497
24.31	3.81109
24.32	3.79662
24.33	3.79826
24.34	3.78708
24.35	3.79596
24.36	3.8032
24.37	3.79826
24.38	3.79168
24.39	3.78741
24.4	3.80254
24.41	3.80649
24.42	3.78576
24.43	3.79991
24.44	3.79826
24.45	3.7907
24.46	3.78708
24.47	3.79366
24.48	3.79037
24.49	3.78576
24.5	3.7907
24.51	3.78116
24.52	3.78576
24.53	3.79497
24.54	3.77853
24.55	3.79761
24.56	3.77918
24.57	3.77688
24.58	3.78313
24.59	3.8009
24.6	3.79728
24.61	3.79695
24.62	3.79465
24.63	3.78708
24.64	3.78017
24.65	3.793
24.66	3.78313
24.67	3.77754
24.68	3.77688
24.69	3.77688
24.7	3.7782
24.71	3.79728
24.72	3.79497
24.73	3.78774
24.74	3.78741
24.75	3.76997
24.76	3.77458
24.77	3.77458
24.78	3.77787
24.79	3.78872
24.8	3.79793
24.81	3.79267
24.82	3.79596
24.83	3.78708
24.84	3.7726
24.85	3.78247
24.86	3.78642
24.87	3.78116
24.88	3.77063
24.89	3.78149
24.9	3.78116
24.91	3.78872
24.92	3.79103
24.93	3.77787
24.94	3.77228
24.95	3.78478
24.96	3.79004
24.97	3.78971
24.98	3.78313
24.99	3.78576
25	3.78642
25.01	3.80747
25.02	3.78511
25.03	3.77589
25.04	3.78445
25.05	3.78642
25.06	3.77524
25.07	3.75583
25.08	3.77589
25.09	3.77425
25.1	3.77359
25.11	3.78247
25.12	3.79333
25.13	3.79793
25.14	3.78247
25.15	3.77557
25.16	3.78872
25.17	3.78642
25.18	3.78642
25.19	3.78774
25.2	3.78675
25.21	3.7828
25.22	3.76668
25.23	3.79465
25.24	3.79629
25.25	3.78543
25.26	3.77392
25.27	3.7726
25.28	3.78708
25.29	3.76964
25.3	3.77491
25.31	3.79234
25.32	3.79168
25.33	3.79892
25.34	3.79662
25.35	3.77458
25.36	3.78445
25.37	3.78675
25.38	3.7782
25.39	3.78872
25.4	3.76899
25.41	3.76175
25.42	3.77425
25.43	3.77787
25.44	3.78872
25.45	3.78708
25.46	3.77622
25.47	3.77557
25.48	3.79399
25.49	3.7953
25.5	3.78149
25.51	3.79333
25.52	3.80747
25.53	3.79596
25.54	3.77787
25.55	3.77951
25.56	3.79596
25.57	3.79925
25.58	3.78478
25.59	3.77589
25.6	3.7907
25.61	3.79497
25.62	3.78083
25.63	3.7805
25.64	3.80024
25.65	3.78017
25.66	3.77787
25.67	3.78971
25.68	3.7805
25.69	3.76866
25.7	3.78511
25.71	3.79662
25.72	3.78609
25.73	3.79465
25.74	3.78807
25.75	3.768
25.76	3.78247
25.77	3.78807
25.78	3.78543
25.79	3.78511
25.8	3.79662
25.81	3.78346
25.82	3.7805
25.83	3.79465
25.84	3.78807
25.85	3.78247
25.86	3.78741
25.87	3.79563
25.88	3.78247
25.89	3.793
25.9	3.78543
25.91	3.79892
25.92	3.78774
25.93	3.78708
25.94	3.78807
25.95	3.77655
25.96	3.78412
25.97	3.78543
25.98	3.79168
25.99	3.77886
26	3.77195
26.01	3.77622
26.02	3.79793
26.03	3.78774
26.04	3.78149
26.05	3.77425
26.06	3.76767
26.07	3.78412
26.08	3.78116
26.09	3.7657
26.1	3.76701
26.11	3.76701
26.12	3.77293
26.13	3.77754
26.14	3.78543
26.15	3.79037
26.16	3.7703
26.17	3.76438
26.18	3.77951
26.19	3.77524
26.2	3.76603
26.21	3.77853
26.22	3.79399
26.23	3.77984
26.24	3.78214
26.25	3.77524
26.26	3.7657
26.27	3.76635
26.28	3.77754
26.29	3.77951
26.3	3.76997
26.31	3.78478
26.32	3.79234
26.33	3.77096
26.34	3.76701
26.35	3.7601
26.36	3.78116
26.37	3.7782
26.38	3.7726
26.39	3.76603
26.4	3.77524
26.41	3.77721
26.42	3.78445
26.43	3.76339
26.44	3.7782
26.45	3.77688
26.46	3.77918
26.47	3.77754
26.48	3.76603
26.49	3.78379
26.5	3.77886
26.51	3.78642
26.52	3.78807
26.53	3.78938
26.54	3.78543
26.55	3.77655
26.56	3.77721
26.57	3.7782
26.58	3.75813
26.59	3.76175
26.6	3.78116
26.61	3.77951
26.62	3.78083
26.63	3.76405
26.64	3.76537
26.65	3.7828
26.66	3.7805
26.67	3.77721
26.68	3.77425
26.69	3.77918
26.7	3.77228
26.71	3.77491
26.72	3.77721
26.73	3.79103
26.74	3.78214
26.75	3.77096
26.76	3.7555
26.77	3.76208
26.78	3.77293
26.79	3.76603
26.8	3.79103
26.81	3.78741
26.82	3.77063
26.83	3.79761
26.84	3.78247
26.85	3.77853
26.86	3.78609
26.87	3.76734
26.88	3.768
26.89	3.76208
26.9	3.768
26.91	3.76175
26.92	3.78807
26.93	3.77491
26.94	3.77589
26.95	3.77886
26.96	3.8032
26.97	3.77721
26.98	3.75616
26.99	3.77425
27	3.77195
27.01	3.75353
27.02	3.77425
27.03	3.77293
27.04	3.77886
27.05	3.76964
27.06	3.76701
27.07	3.76208
27.08	3.78379
27.09	3.76668
27.1	3.75879
27.11	3.76866
27.12	3.76767
27.13	3.76241
27.14	3.77754
27.15	3.77918
27.16	3.76997
27.17	3.77129
27.18	3.7782
27.19	3.78971
27.2	3.77557
27.21	3.7782
27.22	3.76635
27.23	3.78214
27.24	3.75945
27.25	3.76471
27.26	3.7703
27.27	3.78576
27.28	3.75747
27.29	3.75945
27.3	3.76997
27.31	3.78083
27.32	3.78182
27.33	3.78116
27.34	3.76899
27.35	3.77589
27.36	3.76899
27.37	3.77754
27.38	3.78412
27.39	3.77853
27.4	3.7805
27.41	3.77458
27.42	3.7828
27.43	3.76701
27.44	3.76635
27.45	3.77228
27.46	3.78511
27.47	3.78445
27.48	3.76603
27.49	3.75024
27.5	3.7703
27.51	3.7782
27.52	3.76932
27.53	3.77622
27.54	3.76833
27.55	3.76899
27.56	3.77557
27.57	3.76932
27.58	3.76668
27.59	3.78675
27.6	3.78116
27.61	3.76504
27.62	3.77754
27.63	3.78609
27.64	3.76701
27.65	3.77096
27.66	3.79267
27.67	3.78642
27.68	3.76504
27.69	3.76964
27.7	3.76668
27.71	3.75484
27.72	3.76833
27.73	3.768
27.74	3.78182
27.75	3.77951
27.76	3.76603
27.77	3.7578
27.78	3.76866
27.79	3.78346
27.8	3.76537
27.81	3.77228
27.82	3.78872
27.83	3.77326
27.84	3.76866
27.85	3.77326
27.86	3.77063
27.87	3.78938
27.88	3.7828
27.89	3.77195
27.9	3.76701
27.91	3.79234
27.92	3.77063
27.93	3.78543
27.94	3.77228
27.95	3.78017
27.96	3.77754
27.97	3.768
27.98	3.75681
27.99	3.77326
28	3.78774
28.01	3.79629
28.02	3.78938
28.03	3.76932
28.04	3.75714
28.05	3.76964
28.06	3.78412
28.07	3.79103
28.08	3.77984
28.09	3.77425
28.1	3.76307
28.11	3.76043
28.12	3.77984
28.13	3.77688
28.14	3.75945
28.15	3.7828
28.16	3.77359
28.17	3.77096
28.18	3.76701
28.19	3.77589
28.2	3.77195
28.21	3.7726
28.22	3.7532
28.23	3.76241
28.24	3.78017
28.25	3.77491
28.26	3.76109
28.27	3.75945
28.28	3.7555
28.29	3.76899
28.3	3.77129
28.31	3.78511
28.32	3.78511
28.33	3.77918
28.34	3.76635
28.35	3.7601
28.36	3.77425
28.37	3.76668
28.38	3.77458
28.39	3.74958
28.4	3.75945
28.41	3.77721
28.42	3.78511
28.43	3.77458
28.44	3.77228
28.45	3.76701
28.46	3.76603
28.47	3.77425
28.48	3.768
28.49	3.76635
28.5	3.77293
28.51	3.76175
28.52	3.76142
28.53	3.75945
28.54	3.75978
28.55	3.76866
28.56	3.76307
28.57	3.76274
28.58	3.74629
28.59	3.77622
28.6	3.77063
28.61	3.76339
28.62	3.75813
28.63	3.77557
28.64	3.77721
28.65	3.76372
28.66	3.78116
28.67	3.76932
28.68	3.76471
28.69	3.76537
28.7	3.7703
28.71	3.7782
28.72	3.78445
28.73	3.77951
28.74	3.77524
28.75	3.75353
28.76	3.76964
28.77	3.76471
28.78	3.77228
28.79	3.7555
28.8	3.77063
28.81	3.76175
28.82	3.75583
28.83	3.79234
28.84	3.77425
28.85	3.76767
28.86	3.76208
28.87	3.75517
28.88	3.76537
28.89	3.76964
28.9	3.76208
28.91	3.75484
28.92	3.76537
28.93	3.76603
28.94	3.76274
28.95	3.74366
28.96	3.75418
28.97	3.76997
28.98	3.7532
28.99	3.7555
29	3.76076
29.01	3.74234
29.02	3.743
29.03	3.75846
29.04	3.76899
29.05	3.77096
29.06	3.76866
29.07	3.76668
29.08	3.76767
29.09	3.77228
29.1	3.76142
29.11	3.76339
29.12	3.76339
29.13	3.76603
29.14	3.76701
29.15	3.76964
29.16	3.76964
29.17	3.77557
29.18	3.7828
29.19	3.77162
29.2	3.7601
29.21	3.76076
29.22	3.75385
29.23	3.76964
29.24	3.75945
29.25	3.75056
29.26	3.75254
29.27	3.76899
29.28	3.75287
29.29	3.76109
29.3	3.75846
29.31	3.76701
29.32	3.75583
29.33	3.75583
29.34	3.75681
29.35	3.76307
29.36	3.7657
29.37	3.76405
29.38	3.77195
29.39	3.78149
29.4	3.76175
29.41	3.76076
29.42	3.76109
29.43	3.76866
29.44	3.77195
29.45	3.76274
29.46	3.75024
29.47	3.78774
29.48	3.76372
29.49	3.76899
29.5	3.77491
29.51	3.74925
29.52	3.75287
29.53	3.76833
29.54	3.76109
29.55	3.75846
29.56	3.76997
29.57	3.76175
29.58	3.76142
29.59	3.75089
29.6	3.7726
29.61	3.76175
29.62	3.75681
29.63	3.7555
29.64	3.77557
29.65	3.76701
29.66	3.76668
29.67	3.75912
29.68	3.76668
29.69	3.76932
29.7	3.76208
29.71	3.76471
29.72	3.74201
29.73	3.75089
29.74	3.76274
29.75	3.77162
29.76	3.78017
29.77	3.77622
29.78	3.77326
29.79	3.77096
29.8	3.7726
29.81	3.77688
29.82	3.7703
29.83	3.7555
29.84	3.7453
29.85	3.75879
29.86	3.76635
29.87	3.75978
29.88	3.76833
29.89	3.75583
29.9	3.76405
29.91	3.77096
29.92	3.73642
29.93	3.75254
29.94	3.75846
29.95	3.75353
29.96	3.77721
29.97	3.76734
29.98	3.76142
29.99	3.77984
30	3.76997
