"BIO-KINE ASCII FILE"
"_COMMENT"	"MOS-500 Spectrometer"
"_COMMENT"	"Kinetics measurement"
"_COMMENT"	"Y Unit : Volt,  X Unit : s"
"_COMMENT"	"Excitation wavelength : 380 nm"
"_COMMENT"	"Fentes bandwidth =  1 nm"
"_COMMENT"	"HV= 1000V"
"_COMMENT"	"Timebase  1 =  .01 s   3001 pts"
"_SFM"	"SFM-400 /S  Advanced mode"
"_SFM"	"Ratio : S1: 2.5, S2: 0, S3: 0, S4: 1"
"_SFM"	"Content : S1: , S2: , S3: , S4:"
"_SFM"	"Concentration : S1: , S2: , S3: , S4:"
"_SFM"	"Total volume : 209 µl  Flow : 3.5 mL/s"
"_SFM"	"Acquisition start :  10 ms before stop"
"_SFM"	"cuve=FC-15, s1=10 ml , s2=10 ml , s3=10 ml , s4=1.9 ml"
"_UNITX"	"s"
"_UNITY"	"Volt"
"_DELTAX"	0
"_DATA"
1e-300	2.24821
0.01	2.17584
0.02	2.23637
0.03	2.22222
0.04	2.17946
0.05	2.20545
0.06	2.17387
0.07	2.17518
0.08	2.17946
0.09	2.16959
0.1	2.16893
0.11	2.18703
0.12	2.18538
0.13	2.20907
0.14	2.19788
0.15	2.18407
0.16	2.19229
0.17	2.21203
0.18	2.22617
0.19	2.21926
0.2	2.19196
0.21	2.20446
0.22	2.1788
0.23	2.19953
0.24	2.21367
0.25	2.21269
0.26	2.19393
0.27	2.18078
0.28	2.17716
0.29	2.18111
0.3	2.1913
0.31	2.20347
0.32	2.22486
0.33	2.23834
0.34	2.2242
0.35	2.20874
0.36	2.20084
0.37	2.21499
0.38	2.22288
0.39	2.20315
0.4	2.21565
0.41	2.21466
0.42	2.21005
0.43	2.21926
0.44	2.18538
0.45	2.16992
0.46	2.1992
0.47	2.23012
0.48	2.20611
0.49	2.20808
0.5	2.21236
0.51	2.22222
0.52	2.18703
0.53	2.19755
0.54	2.2038
0.55	2.21696
0.56	2.19755
0.57	2.21269
0.58	2.22716
0.59	2.22453
0.6	2.19163
0.61	2.22749
0.62	2.19459
0.63	2.18341
0.64	2.2219
0.65	2.22354
0.66	2.20643
0.67	2.18933
0.68	2.20512
0.69	2.22551
0.7	2.20676
0.71	2.18143
0.72	2.21236
0.73	2.21466
0.74	2.18966
0.75	2.20611
0.76	2.20347
0.77	2.21104
0.78	2.23801
0.79	2.23374
0.8	2.19657
0.81	2.17551
0.82	2.18176
0.83	2.20742
0.84	2.21532
0.85	2.21137
0.86	2.2094
0.87	2.18407
0.88	2.19953
0.89	2.20512
0.9	2.20051
0.91	2.21795
0.92	2.24624
0.93	2.2038
0.94	2.20479
0.95	2.20907
0.96	2.21104
0.97	2.2094
0.98	2.20512
0.99	2.2094
1	2.22551
1.01	2.2265
1.02	2.23144
1.03	2.19986
1.04	2.20413
1.05	2.20018
1.06	2.22354
1.07	2.21795
1.08	2.20347
1.09	2.19986
1.1	2.2367
1.11	2.18571
1.12	2.20051
1.13	2.1788
1.14	2.17485
1.15	2.22584
1.16	2.21992
1.17	2.19558
1.18	2.19032
1.19	2.18637
1.2	2.16795
1.21	2.19229
1.22	2.20315
1.23	2.22157
1.24	2.25249
1.25	2.21236
1.26	2.19525
1.27	2.19426
1.28	2.19854
1.29	2.18472
1.3	2.19525
1.31	2.20216
1.32	2.20084
1.33	2.20874
1.34	2.20907
1.35	2.20347
1.36	2.2038
1.37	2.22815
1.38	2.22222
1.39	2.22124
1.4	2.20841
1.41	2.19854
1.42	2.21959
1.43	2.21137
1.44	2.20413
1.45	2.20084
1.46	2.20084
1.47	2.20742
1.48	2.20907
1.49	2.21565
1.5	2.20709
1.51	2.18078
1.52	2.17814
1.53	2.19328
1.54	2.21663
1.55	2.21597
1.56	2.20216
1.57	2.164
1.58	2.20249
1.59	2.20676
1.6	2.18966
1.61	2.19229
1.62	2.18439
1.63	2.19788
1.64	2.18999
1.65	2.18933
1.66	2.21663
1.67	2.20676
1.68	2.19032
1.69	2.18966
1.7	2.21992
1.71	2.21236
1.72	2.20315
1.73	2.20611
1.74	2.20479
1.75	2.20347
1.76	2.19755
1.77	2.19459
1.78	2.20446
1.79	2.17387
1.8	2.21992
1.81	2.23341
1.82	2.20545
1.83	2.2242
1.84	2.21466
1.85	2.20841
1.86	2.20907
1.87	2.21334
1.88	2.19393
1.89	2.20874
1.9	2.21532
1.91	2.21203
1.92	2.21466
1.93	2.2163
1.94	2.19295
1.95	2.21926
1.96	2.21203
1.97	2.23275
1.98	2.18374
1.99	2.19624
2	2.20578
2.01	2.20709
2.02	2.20545
2.03	2.17749
2.04	2.20249
2.05	2.18538
2.06	2.19163
2.07	2.20216
2.08	2.21729
2.09	2.19953
2.1	2.19755
2.11	2.19788
2.12	2.18505
2.13	2.19591
2.14	2.2219
2.15	2.20841
2.16	2.21762
2.17	2.20611
2.18	2.16466
2.19	2.17025
2.2	2.22782
2.21	2.22321
2.22	2.18045
2.23	2.22551
2.24	2.19426
2.25	2.21894
2.26	2.21597
2.27	2.21597
2.28	2.18999
2.29	2.2094
2.3	2.19492
2.31	2.17551
2.32	2.1686
2.33	2.20282
2.34	2.21038
2.35	2.19295
2.36	2.20183
2.37	2.21795
2.38	2.20446
2.39	2.21532
2.4	2.22946
2.41	2.18571
2.42	2.20611
2.43	2.18637
2.44	2.22782
2.45	2.20282
2.46	2.24624
2.47	2.23637
2.48	2.22058
2.49	2.18439
2.5	2.17847
2.51	2.23275
2.52	2.21038
2.53	2.20413
2.54	2.20315
2.55	2.20907
2.56	2.20643
2.57	2.19558
2.58	2.21466
2.59	2.21334
2.6	2.18472
2.61	2.18538
2.62	2.18439
2.63	2.20611
2.64	2.2094
2.65	2.22683
2.66	2.20446
2.67	2.22124
2.68	2.21861
2.69	2.19163
2.7	2.24459
2.71	2.22354
2.72	2.20347
2.73	2.21663
2.74	2.21795
2.75	2.21104
2.76	2.24591
2.77	2.20282
2.78	2.19262
2.79	2.18111
2.8	2.20611
2.81	2.22222
2.82	2.2117
2.83	2.24558
2.84	2.21861
2.85	2.22255
2.86	2.22025
2.87	2.23374
2.88	2.19755
2.89	2.20315
2.9	2.21795
2.91	2.21005
2.92	2.22058
2.93	2.18341
2.94	2.20413
2.95	2.21269
2.96	2.21894
2.97	2.21499
2.98	2.2117
2.99	2.19393
3	2.20315
3.01	2.22617
3.02	2.21926
3.03	2.2492
3.04	2.24953
3.05	2.23769
3.06	2.22617
3.07	2.23966
3.08	2.21729
3.09	2.21894
3.1	2.21565
3.11	2.21071
3.12	2.23045
3.13	2.21203
3.14	2.19821
3.15	2.21894
3.16	2.21005
3.17	2.20051
3.18	2.20315
3.19	2.20117
3.2	2.19657
3.21	2.19591
3.22	2.19262
3.23	2.21269
3.24	2.18999
3.25	2.18736
3.26	2.18703
3.27	2.18242
3.28	2.21433
3.29	2.24361
3.3	2.21828
3.31	2.20775
3.32	2.19492
3.33	2.22058
3.34	2.23242
3.35	2.21861
3.36	2.1913
3.37	2.21565
3.38	2.19986
3.39	2.20775
3.4	2.22453
3.41	2.2265
3.42	2.19032
3.43	2.22354
3.44	2.20315
3.45	2.22222
3.46	2.19722
3.47	2.20841
3.48	2.22584
3.49	2.21597
3.5	2.22124
3.51	2.21926
3.52	2.21565
3.53	2.18966
3.54	2.16828
3.55	2.19854
3.56	2.20282
3.57	2.19459
3.58	2.21894
3.59	2.20347
3.6	2.19295
3.61	2.17716
3.62	2.1992
3.63	2.20972
3.64	2.20183
3.65	2.20972
3.66	2.20972
3.67	2.20117
3.68	2.20479
3.69	2.22091
3.7	2.22584
3.71	2.2117
3.72	2.20578
3.73	2.18242
3.74	2.22946
3.75	2.19722
3.76	2.2163
3.77	2.214
3.78	2.21005
3.79	2.1992
3.8	2.21926
3.81	2.2265
3.82	2.21203
3.83	2.21729
3.84	2.21663
3.85	2.21499
3.86	2.2094
3.87	2.2015
3.88	2.21926
3.89	2.21038
3.9	2.20413
3.91	2.21038
3.92	2.20051
3.93	2.23933
3.94	2.24459
3.95	2.21137
3.96	2.20347
3.97	2.21499
3.98	2.22255
3.99	2.20216
4	2.20216
4.01	2.22354
4.02	2.22979
4.03	2.22222
4.04	2.21005
4.05	2.23045
4.06	2.22354
4.07	2.20611
4.08	2.18078
4.09	2.20282
4.1	2.23078
4.11	2.21005
4.12	2.20018
4.13	2.2015
4.14	2.18341
4.15	2.21005
4.16	2.20315
4.17	2.19986
4.18	2.20216
4.19	2.20413
4.2	2.21236
4.21	2.1913
4.22	2.19393
4.23	2.21334
4.24	2.21499
4.25	2.23176
4.26	2.22848
4.27	2.20676
4.28	2.18308
4.29	2.22979
4.3	2.20183
4.31	2.22255
4.32	2.22354
4.33	2.2242
4.34	2.21367
4.35	2.20841
4.36	2.17814
4.37	2.23407
4.38	2.24196
4.39	2.20512
4.4	2.20183
4.41	2.21334
4.42	2.22288
4.43	2.24755
4.44	2.21828
4.45	2.20282
4.46	2.18308
4.47	2.21532
4.48	2.21466
4.49	2.21992
4.5	2.22815
4.51	2.23111
4.52	2.2163
4.53	2.23308
4.54	2.22519
4.55	2.21696
4.56	2.21926
4.57	2.17025
4.58	2.1969
4.59	2.21301
4.6	2.22453
4.61	2.19229
4.62	2.20841
4.63	2.20545
4.64	2.19854
4.65	2.20216
4.66	2.18374
4.67	2.17946
4.68	2.19262
4.69	2.19163
4.7	2.18275
4.71	2.2015
4.72	2.21236
4.73	2.21433
4.74	2.20347
4.75	2.18604
4.76	2.2015
4.77	2.21597
4.78	2.21762
4.79	2.23538
4.8	2.21334
4.81	2.20347
4.82	2.19722
4.83	2.20216
4.84	2.18933
4.85	2.20413
4.86	2.21466
4.87	2.19097
4.88	2.21334
4.89	2.17518
4.9	2.21334
4.91	2.21071
4.92	2.21762
4.93	2.19986
4.94	2.17683
4.95	2.17913
4.96	2.20249
4.97	2.2117
4.98	2.18933
4.99	2.20808
5	2.18111
5.01	2.18242
5.02	2.19755
5.03	2.22584
5.04	2.24295
5.05	2.22716
5.06	2.19755
5.07	2.19262
5.08	2.20808
5.09	2.1992
5.1	2.19459
5.11	2.19426
5.12	2.20479
5.13	2.2163
5.14	2.21597
5.15	2.21367
5.16	2.20545
5.17	2.19262
5.18	2.17551
5.19	2.18111
5.2	2.20643
5.21	2.21137
5.22	2.2117
5.23	2.17683
5.24	2.22617
5.25	2.21795
5.26	2.21992
5.27	2.1867
5.28	2.20709
5.29	2.19558
5.3	2.18308
5.31	2.19821
5.32	2.21795
5.33	2.18999
5.34	2.17518
5.35	2.20643
5.36	2.17979
5.37	2.19459
5.38	2.23867
5.39	2.21499
5.4	2.20545
5.41	2.18275
5.42	2.1913
5.43	2.19196
5.44	2.22716
5.45	2.18111
5.46	2.19591
5.47	2.23867
5.48	2.2117
5.49	2.21992
5.5	2.21005
5.51	2.2117
5.52	2.19393
5.53	2.20775
5.54	2.20841
5.55	2.20643
5.56	2.20841
5.57	2.22058
5.58	2.21861
5.59	2.21992
5.6	2.1913
5.61	2.19986
5.62	2.23111
5.63	2.22749
5.64	2.20874
5.65	2.21565
5.66	2.23769
5.67	2.21433
5.68	2.20413
5.69	2.21861
5.7	2.21894
5.71	2.19097
5.72	2.18999
5.73	2.19558
5.74	2.19262
5.75	2.21269
5.76	2.20907
5.77	2.22519
5.78	2.24328
5.79	2.20051
5.8	2.23078
5.81	2.23242
5.82	2.19591
5.83	2.19459
5.84	2.20578
5.85	2.21828
5.86	2.24229
5.87	2.189
5.88	2.22091
5.89	2.21269
5.9	2.2094
5.91	2.189
5.92	2.20874
5.93	2.21663
5.94	2.17782
5.95	2.20249
5.96	2.22058
5.97	2.22387
5.98	2.21038
5.99	2.214
6	2.19196
6.01	2.21565
6.02	2.18933
6.03	2.21236
6.04	2.22749
6.05	2.24196
6.06	2.19097
6.07	2.18045
6.08	2.19032
6.09	2.22091
6.1	2.21795
6.11	2.20709
6.12	2.20611
6.13	2.19755
6.14	2.19591
6.15	2.21269
6.16	2.21433
6.17	2.20084
6.18	2.19064
6.19	2.20709
6.2	2.1969
6.21	2.20347
6.22	2.21367
6.23	2.20084
6.24	2.20282
6.25	2.21104
6.26	2.21663
6.27	2.1969
6.28	2.21992
6.29	2.21828
6.3	2.1992
6.31	2.19459
6.32	2.20315
6.33	2.21466
6.34	2.22058
6.35	2.22354
6.36	2.239
6.37	2.23834
6.38	2.20084
6.39	2.18439
6.4	2.19788
6.41	2.20282
6.42	2.22025
6.43	2.19558
6.44	2.2015
6.45	2.2265
6.46	2.21301
6.47	2.22222
6.48	2.22716
6.49	2.24854
6.5	2.21334
6.51	2.19591
6.52	2.20249
6.53	2.19032
6.54	2.20117
6.55	2.21532
6.56	2.19295
6.57	2.189
6.58	2.19097
6.59	2.21696
6.6	2.20446
6.61	2.19426
6.62	2.19558
6.63	2.2015
6.64	2.18209
6.65	2.19986
6.66	2.19558
6.67	2.23473
6.68	2.24032
6.69	2.18472
6.7	2.18703
6.71	2.21203
6.72	2.20183
6.73	2.22551
6.74	2.24229
6.75	2.19986
6.76	2.18966
6.77	2.20676
6.78	2.20018
6.79	2.18176
6.8	2.20084
6.81	2.16926
6.82	2.19262
6.83	2.23736
6.84	2.20282
6.85	2.21203
6.86	2.21565
6.87	2.20413
6.88	2.19525
6.89	2.20479
6.9	2.22946
6.91	2.21499
6.92	2.214
6.93	2.2015
6.94	2.21696
6.95	2.20808
6.96	2.21532
6.97	2.21795
6.98	2.21005
6.99	2.21301
7	2.18768
7.01	2.21597
7.02	2.22124
7.03	2.21137
7.04	2.21532
7.05	2.19854
7.06	2.20051
7.07	2.18571
7.08	2.19788
7.09	2.20808
7.1	2.22946
7.11	2.19097
7.12	2.19558
7.13	2.19525
7.14	2.17749
7.15	2.18933
7.16	2.20972
7.17	2.23801
7.18	2.2242
7.19	2.20084
7.2	2.2163
7.21	2.21466
7.22	2.2094
7.23	2.19328
7.24	2.18209
7.25	2.22058
7.26	2.21597
7.27	2.20249
7.28	2.19558
7.29	2.17453
7.3	2.20413
7.31	2.21663
7.32	2.19393
7.33	2.22255
7.34	2.21926
7.35	2.21433
7.36	2.24032
7.37	2.23176
7.38	2.23144
7.39	2.21762
7.4	2.2117
7.41	2.22913
7.42	2.17946
7.43	2.2242
7.44	2.20018
7.45	2.21104
7.46	2.19624
7.47	2.18505
7.48	2.22782
7.49	2.21071
7.5	2.18834
7.51	2.19262
7.52	2.19986
7.53	2.19788
7.54	2.22946
7.55	2.22815
7.56	2.20479
7.57	2.17025
7.58	2.19657
7.59	2.20183
7.6	2.20282
7.61	2.21367
7.62	2.20808
7.63	2.18604
7.64	2.21038
7.65	2.20216
7.66	2.17617
7.67	2.20183
7.68	2.21071
7.69	2.21005
7.7	2.19361
7.71	2.2094
7.72	2.18834
7.73	2.22815
7.74	2.22749
7.75	2.19492
7.76	2.21565
7.77	2.25084
7.78	2.22255
7.79	2.19393
7.8	2.21663
7.81	2.23834
7.82	2.2163
7.83	2.21203
7.84	2.22519
7.85	2.23867
7.86	2.19788
7.87	2.22453
7.88	2.20216
7.89	2.22025
7.9	2.20347
7.91	2.20578
7.92	2.20841
7.93	2.19953
7.94	2.2015
7.95	2.21071
7.96	2.16499
7.97	2.20413
7.98	2.22387
7.99	2.21565
8	2.20183
8.01	2.20282
8.02	2.19492
8.03	2.20709
8.04	2.21696
8.05	2.21696
8.06	2.19953
8.07	2.22321
8.08	2.21532
8.09	2.21861
8.1	2.17058
8.11	2.20841
8.12	2.2163
8.13	2.21565
8.14	2.2038
8.15	2.21795
8.16	2.20479
8.17	2.18505
8.18	2.20018
8.19	2.2265
8.2	2.2117
8.21	2.22617
8.22	2.24163
8.23	2.23769
8.24	2.22584
8.25	2.21236
8.26	2.19328
8.27	2.21532
8.28	2.19755
8.29	2.19558
8.3	2.22222
8.31	2.21729
8.32	2.21959
8.33	2.26104
8.34	2.23045
8.35	2.21828
8.36	2.22946
8.37	2.18933
8.38	2.18801
8.39	2.22716
8.4	2.22321
8.41	2.22091
8.42	2.22321
8.43	2.18571
8.44	2.22058
8.45	2.21005
8.46	2.21926
8.47	2.23176
8.48	2.21301
8.49	2.21894
8.5	2.22946
8.51	2.23012
8.52	2.23505
8.53	2.19426
8.54	2.20282
8.55	2.20643
8.56	2.21071
8.57	2.20972
8.58	2.22486
8.59	2.24065
8.6	2.21696
8.61	2.2288
8.62	2.24262
8.63	2.21466
8.64	2.21532
8.65	2.20413
8.66	2.2038
8.67	2.23012
8.68	2.20643
8.69	2.23736
8.7	2.22584
8.71	2.2094
8.72	2.22222
8.73	2.20249
8.74	2.1969
8.75	2.1867
8.76	2.18999
8.77	2.22058
8.78	2.22091
8.79	2.19986
8.8	2.22716
8.81	2.22321
8.82	2.24196
8.83	2.22354
8.84	2.21334
8.85	2.19229
8.86	2.18801
8.87	2.20183
8.88	2.22782
8.89	2.21301
8.9	2.20742
8.91	2.2219
8.92	2.21236
8.93	2.19097
8.94	2.18308
8.95	2.22157
8.96	2.19196
8.97	2.2288
8.98	2.22979
8.99	2.22979
9	2.2117
9.01	2.2265
9.02	2.21696
9.03	2.22782
9.04	2.2219
9.05	2.22387
9.06	2.20676
9.07	2.24394
9.08	2.21597
9.09	2.23505
9.1	2.22782
9.11	2.21565
9.12	2.19328
9.13	2.22782
9.14	2.18637
9.15	2.1992
9.16	2.22321
9.17	2.20676
9.18	2.24591
9.19	2.20676
9.2	2.21269
9.21	2.24065
9.22	2.22453
9.23	2.20545
9.24	2.23637
9.25	2.21071
9.26	2.21466
9.27	2.21137
9.28	2.23407
9.29	2.22782
9.3	2.19591
9.31	2.20841
9.32	2.22815
9.33	2.22124
9.34	2.20183
9.35	2.21729
9.36	2.2038
9.37	2.22354
9.38	2.22584
9.39	2.21071
9.4	2.26696
9.41	2.21663
9.42	2.19887
9.43	2.21005
9.44	2.1867
9.45	2.20512
9.46	2.20347
9.47	2.2094
9.48	2.21137
9.49	2.20216
9.5	2.24459
9.51	2.20084
9.52	2.21433
9.53	2.21762
9.54	2.21038
9.55	2.20545
9.56	2.21301
9.57	2.21959
9.58	2.24854
9.59	2.23144
9.6	2.21729
9.61	2.22354
9.62	2.20051
9.63	2.21433
9.64	2.23867
9.65	2.22255
9.66	2.22354
9.67	2.2094
9.68	2.19821
9.69	2.23275
9.7	2.20643
9.71	2.21597
9.72	2.22387
9.73	2.20084
9.74	2.19755
9.75	2.20874
9.76	2.20282
9.77	2.21597
9.78	2.21762
9.79	2.23505
9.8	2.22091
9.81	2.2117
9.82	2.22255
9.83	2.24163
9.84	2.20709
9.85	2.23012
9.86	2.1992
9.87	2.19986
9.88	2.21038
9.89	2.21104
9.9	2.20841
9.91	2.21104
9.92	2.20479
9.93	2.19426
9.94	2.20709
9.95	2.20315
9.96	2.21565
9.97	2.23275
9.98	2.23769
9.99	2.20808
10	2.18012
10.01	2.17485
10.02	2.23341
10.03	2.2117
10.04	2.20216
10.05	2.21433
10.06	2.21104
10.07	2.21959
10.08	2.2015
10.09	2.23308
10.1	2.23407
10.11	2.22321
10.12	2.21959
10.13	2.22255
10.14	2.20972
10.15	2.22782
10.16	2.21038
10.17	2.17485
10.18	2.18834
10.19	2.2038
10.2	2.20874
10.21	2.23341
10.22	2.22387
10.23	2.23275
10.24	2.22354
10.25	2.23407
10.26	2.20117
10.27	2.21367
10.28	2.2288
10.29	2.20183
10.3	2.20315
10.31	2.2117
10.32	2.21729
10.33	2.18933
10.34	2.22157
10.35	2.2219
10.36	2.18045
10.37	2.21071
10.38	2.20183
10.39	2.19887
10.4	2.23703
10.41	2.22848
10.42	2.19657
10.43	2.2015
10.44	2.23111
10.45	2.23374
10.46	2.23078
10.47	2.22288
10.48	2.20643
10.49	2.18867
10.5	2.2492
10.51	2.20874
10.52	2.23045
10.53	2.21861
10.54	2.22288
10.55	2.20479
10.56	2.20249
10.57	2.20578
10.58	2.21894
10.59	2.23111
10.6	2.20643
10.61	2.22058
10.62	2.22716
10.63	2.20117
10.64	2.22354
10.65	2.21565
10.66	2.24361
10.67	2.24788
10.68	2.22387
10.69	2.20282
10.7	2.20117
10.71	2.1969
10.72	2.23275
10.73	2.21071
10.74	2.1969
10.75	2.19986
10.76	2.19887
10.77	2.21334
10.78	2.22815
10.79	2.21005
10.8	2.20874
10.81	2.21861
10.82	2.20018
10.83	2.22979
10.84	2.21992
10.85	2.24591
10.86	2.21663
10.87	2.22091
10.88	2.22321
10.89	2.22519
10.9	2.23637
10.91	2.20874
10.92	2.18439
10.93	2.20084
10.94	2.21367
10.95	2.20709
10.96	2.21038
10.97	2.20676
10.98	2.20446
10.99	2.20545
11	2.20775
11.01	2.21433
11.02	2.22091
11.03	2.23834
11.04	2.21137
11.05	2.2367
11.06	2.21038
11.07	2.1867
11.08	2.2015
11.09	2.20841
11.1	2.22255
11.11	2.21926
11.12	2.22387
11.13	2.21532
11.14	2.19492
11.15	2.20775
11.16	2.19196
11.17	2.22157
11.18	2.23012
11.19	2.19459
11.2	2.20413
11.21	2.21137
11.22	2.22387
11.23	2.24361
11.24	2.23242
11.25	2.22058
11.26	2.2038
11.27	2.19788
11.28	2.2515
11.29	2.23341
11.3	2.23176
11.31	2.21236
11.32	2.189
11.33	2.21334
11.34	2.22354
11.35	2.22453
11.36	2.22946
11.37	2.23242
11.38	2.21729
11.39	2.23012
11.4	2.22288
11.41	2.2038
11.42	2.20479
11.43	2.20282
11.44	2.17979
11.45	2.19393
11.46	2.23505
11.47	2.21334
11.48	2.2265
11.49	2.21894
11.5	2.24229
11.51	2.2117
11.52	2.20907
11.53	2.19295
11.54	2.20018
11.55	2.20018
11.56	2.20611
11.57	2.20775
11.58	2.20413
11.59	2.1969
11.6	2.21433
11.61	2.22124
11.62	2.22288
11.63	2.20775
11.64	2.21236
11.65	2.23176
11.66	2.20972
11.67	2.19887
11.68	2.17321
11.69	2.21466
11.7	2.23801
11.71	2.239
11.72	2.21203
11.73	2.22222
11.74	2.21762
11.75	2.22946
11.76	2.24262
11.77	2.20413
11.78	2.24558
11.79	2.24361
11.8	2.22584
11.81	2.25183
11.82	2.23012
11.83	2.23012
11.84	2.22255
11.85	2.20907
11.86	2.22354
11.87	2.24657
11.88	2.2094
11.89	2.20972
11.9	2.20808
11.91	2.22124
11.92	2.21236
11.93	2.21104
11.94	2.23834
11.95	2.18966
11.96	2.21301
11.97	2.21894
11.98	2.20775
11.99	2.23703
12	2.22551
12.01	2.25052
12.02	2.24525
12.03	2.19821
12.04	2.1788
12.05	2.21597
12.06	2.21137
12.07	2.21334
12.08	2.22321
12.09	2.24525
12.1	2.22913
12.11	2.20808
12.12	2.21071
12.13	2.1913
12.14	2.20709
12.15	2.19755
12.16	2.21334
12.17	2.214
12.18	2.21762
12.19	2.21861
12.2	2.2492
12.21	2.23966
12.22	2.21269
12.23	2.19525
12.24	2.18472
12.25	2.21795
12.26	2.22025
12.27	2.18374
12.28	2.21367
12.29	2.2038
12.3	2.1969
12.31	2.21696
12.32	2.20315
12.33	2.21367
12.34	2.20907
12.35	2.18407
12.36	2.20611
12.37	2.22848
12.38	2.19657
12.39	2.19459
12.4	2.23275
12.41	2.23637
12.42	2.22157
12.43	2.20446
12.44	2.2163
12.45	2.21597
12.46	2.16301
12.47	2.18538
12.48	2.19591
12.49	2.21104
12.5	2.21894
12.51	2.21663
12.52	2.20676
12.53	2.23209
12.54	2.19591
12.55	2.24986
12.56	2.22683
12.57	2.21466
12.58	2.23308
12.59	2.23801
12.6	2.25216
12.61	2.22749
12.62	2.2219
12.63	2.24492
12.64	2.23012
12.65	2.22157
12.66	2.23242
12.67	2.22815
12.68	2.22617
12.69	2.2015
12.7	2.21828
12.71	2.23801
12.72	2.22617
12.73	2.24229
12.74	2.19986
12.75	2.21367
12.76	2.189
12.77	2.19755
12.78	2.21762
12.79	2.20084
12.8	2.21466
12.81	2.19525
12.82	2.22749
12.83	2.25841
12.84	2.24723
12.85	2.22025
12.86	2.20578
12.87	2.15775
12.88	2.21861
12.89	2.22946
12.9	2.19854
12.91	2.19229
12.92	2.19788
12.93	2.22815
12.94	2.22058
12.95	2.22848
12.96	2.22486
12.97	2.20643
12.98	2.19953
12.99	2.21861
13	2.2265
13.01	2.22617
13.02	2.2265
13.03	2.20742
13.04	2.21894
13.05	2.19788
13.06	2.21861
13.07	2.22848
13.08	2.21565
13.09	2.19624
13.1	2.19854
13.11	2.24361
13.12	2.22782
13.13	2.2117
13.14	2.22025
13.15	2.24459
13.16	2.22058
13.17	2.20972
13.18	2.19624
13.19	2.2288
13.2	2.22617
13.21	2.23473
13.22	2.20578
13.23	2.22354
13.24	2.21861
13.25	2.21959
13.26	2.21499
13.27	2.18703
13.28	2.18637
13.29	2.2094
13.3	2.21071
13.31	2.21861
13.32	2.21861
13.33	2.24427
13.34	2.23209
13.35	2.22815
13.36	2.20972
13.37	2.27091
13.38	2.22551
13.39	2.22782
13.4	2.20216
13.41	2.19295
13.42	2.19262
13.43	2.22255
13.44	2.24558
13.45	2.20907
13.46	2.18604
13.47	2.21104
13.48	2.21038
13.49	2.20315
13.5	2.22025
13.51	2.22848
13.52	2.22354
13.53	2.21894
13.54	2.20512
13.55	2.21005
13.56	2.21663
13.57	2.24887
13.58	2.24262
13.59	2.21926
13.6	2.16762
13.61	2.20841
13.62	2.21828
13.63	2.21565
13.64	2.18933
13.65	2.19953
13.66	2.24887
13.67	2.22453
13.68	2.22749
13.69	2.20018
13.7	2.23505
13.71	2.1969
13.72	2.21137
13.73	2.19953
13.74	2.1969
13.75	2.18867
13.76	2.17946
13.77	2.19426
13.78	2.23111
13.79	2.23703
13.8	2.18341
13.81	2.19328
13.82	2.23275
13.83	2.23834
13.84	2.22453
13.85	2.23637
13.86	2.20643
13.87	2.214
13.88	2.20512
13.89	2.20117
13.9	2.20676
13.91	2.20578
13.92	2.20874
13.93	2.21367
13.94	2.22025
13.95	2.23571
13.96	2.22222
13.97	2.24098
13.98	2.19229
13.99	2.20413
14	2.20315
14.01	2.18439
14.02	2.18505
14.03	2.19459
14.04	2.21894
14.05	2.20907
14.06	2.18966
14.07	2.21203
14.08	2.21828
14.09	2.20413
14.1	2.20972
14.11	2.19426
14.12	2.2219
14.13	2.21926
14.14	2.21565
14.15	2.24558
14.16	2.21005
14.17	2.22519
14.18	2.22913
14.19	2.19591
14.2	2.21795
14.21	2.19755
14.22	2.19657
14.23	2.22848
14.24	2.25446
14.25	2.21499
14.26	2.19854
14.27	2.21565
14.28	2.21236
14.29	2.20084
14.3	2.21926
14.31	2.21959
14.32	2.21137
14.33	2.23012
14.34	2.20315
14.35	2.20611
14.36	2.19459
14.37	2.2288
14.38	2.21828
14.39	2.21071
14.4	2.21301
14.41	2.20709
14.42	2.21038
14.43	2.23012
14.44	2.23604
14.45	2.22946
14.46	2.20413
14.47	2.20117
14.48	2.18637
14.49	2.20874
14.5	2.2538
14.51	2.24591
14.52	2.2288
14.53	2.22749
14.54	2.23012
14.55	2.21532
14.56	2.19032
14.57	2.22255
14.58	2.20676
14.59	2.23999
14.6	2.21926
14.61	2.2413
14.62	2.21137
14.63	2.20315
14.64	2.21532
14.65	2.22222
14.66	2.22288
14.67	2.20545
14.68	2.19459
14.69	2.20709
14.7	2.2242
14.71	2.24953
14.72	2.21334
14.73	2.21236
14.74	2.21104
14.75	2.22551
14.76	2.24755
14.77	2.23275
14.78	2.19361
14.79	2.20216
14.8	2.21038
14.81	2.2219
14.82	2.19821
14.83	2.21663
14.84	2.22486
14.85	2.21203
14.86	2.20479
14.87	2.19032
14.88	2.19591
14.89	2.21959
14.9	2.20315
14.91	2.22683
14.92	2.26269
14.93	2.22848
14.94	2.18999
14.95	2.20709
14.96	2.1992
14.97	2.2094
14.98	2.23209
14.99	2.21565
15	2.20676
15.01	2.19755
15.02	2.21729
15.03	2.22848
15.04	2.22058
15.05	2.21861
15.06	2.18571
15.07	2.2163
15.08	2.22551
15.09	2.23933
15.1	2.25348
15.11	2.21762
15.12	2.23111
15.13	2.20808
15.14	2.20446
15.15	2.19887
15.16	2.21236
15.17	2.17782
15.18	2.21301
15.19	2.18801
15.2	2.19953
15.21	2.20315
15.22	2.19788
15.23	2.21499
15.24	2.19722
15.25	2.2344
15.26	2.21466
15.27	2.24723
15.28	2.19393
15.29	2.22058
15.3	2.24657
15.31	2.20643
15.32	2.21104
15.33	2.2163
15.34	2.24492
15.35	2.20183
15.36	2.16926
15.37	2.22584
15.38	2.23012
15.39	2.21104
15.4	2.1867
15.41	2.21071
15.42	2.2219
15.43	2.2242
15.44	2.23933
15.45	2.23505
15.46	2.21104
15.47	2.19492
15.48	2.2038
15.49	2.22025
15.5	2.20742
15.51	2.22913
15.52	2.25512
15.53	2.23176
15.54	2.21104
15.55	2.21071
15.56	2.20874
15.57	2.22288
15.58	2.18999
15.59	2.21861
15.6	2.20249
15.61	2.22288
15.62	2.23242
15.63	2.23275
15.64	2.23407
15.65	2.2515
15.66	2.22617
15.67	2.18308
15.68	2.21433
15.69	2.19295
15.7	2.19624
15.71	2.20972
15.72	2.22222
15.73	2.20643
15.74	2.19854
15.75	2.2038
15.76	2.24394
15.77	2.22157
15.78	2.2163
15.79	2.20347
15.8	2.24459
15.81	2.20972
15.82	2.20051
15.83	2.20183
15.84	2.19722
15.85	2.23505
15.86	2.20742
15.87	2.20676
15.88	2.22321
15.89	2.214
15.9	2.22519
15.91	2.24492
15.92	2.22157
15.93	2.20282
15.94	2.22519
15.95	2.20249
15.96	2.2265
15.97	2.20282
15.98	2.20282
15.99	2.2469
16	2.2265
16.01	2.22848
16.02	2.23966
16.03	2.20841
16.04	2.20907
16.05	2.24065
16.06	2.23801
16.07	2.21466
16.08	2.23078
16.09	2.22551
16.1	2.22683
16.11	2.18472
16.12	2.18538
16.13	2.214
16.14	2.23012
16.15	2.22551
16.16	2.23604
16.17	2.20051
16.18	2.21565
16.19	2.23341
16.2	2.21104
16.21	2.20084
16.22	2.21038
16.23	2.22946
16.24	2.21696
16.25	2.22025
16.26	2.2094
16.27	2.20742
16.28	2.23275
16.29	2.22946
16.3	2.22157
16.31	2.21005
16.32	2.22913
16.33	2.23242
16.34	2.20051
16.35	2.21762
16.36	2.20512
16.37	2.22091
16.38	2.22716
16.39	2.21203
16.4	2.21367
16.41	2.22387
16.42	2.20611
16.43	2.23769
16.44	2.22716
16.45	2.23045
16.46	2.22913
16.47	2.23209
16.48	2.20446
16.49	2.24065
16.5	2.22091
16.51	2.22387
16.52	2.22584
16.53	2.22749
16.54	2.20808
16.55	2.19426
16.56	2.22091
16.57	2.20183
16.58	2.21137
16.59	2.21433
16.6	2.22091
16.61	2.24328
16.62	2.21532
16.63	2.24163
16.64	2.2469
16.65	2.22617
16.66	2.214
16.67	2.18834
16.68	2.17683
16.69	2.21005
16.7	2.21532
16.71	2.20874
16.72	2.22058
16.73	2.21038
16.74	2.22321
16.75	2.21137
16.76	2.24887
16.77	2.22387
16.78	2.22716
16.79	2.19097
16.8	2.24788
16.81	2.25578
16.82	2.20249
16.83	2.23999
16.84	2.214
16.85	2.20479
16.86	2.20709
16.87	2.20018
16.88	2.19887
16.89	2.21762
16.9	2.20183
16.91	2.24854
16.92	2.23209
16.93	2.22848
16.94	2.21696
16.95	2.22157
16.96	2.2015
16.97	2.22486
16.98	2.25052
16.99	2.21269
17	2.2367
17.01	2.23242
17.02	2.20479
17.03	2.20972
17.04	2.23341
17.05	2.21038
17.06	2.1913
17.07	2.20643
17.08	2.21203
17.09	2.19657
17.1	2.22058
17.11	2.19986
17.12	2.2242
17.13	2.22946
17.14	2.22617
17.15	2.20972
17.16	2.21894
17.17	2.21433
17.18	2.22453
17.19	2.24427
17.2	2.22551
17.21	2.22387
17.22	2.19986
17.23	2.21203
17.24	2.22782
17.25	2.20676
17.26	2.20742
17.27	2.22815
17.28	2.21203
17.29	2.23341
17.3	2.24361
17.31	2.21499
17.32	2.22387
17.33	2.24788
17.34	2.23769
17.35	2.23473
17.36	2.21236
17.37	2.21071
17.38	2.21005
17.39	2.22222
17.4	2.22124
17.41	2.19196
17.42	2.2163
17.43	2.18966
17.44	2.2163
17.45	2.23604
17.46	2.22091
17.47	2.21005
17.48	2.21301
17.49	2.22124
17.5	2.24328
17.51	2.23078
17.52	2.23604
17.53	2.21959
17.54	2.24427
17.55	2.23736
17.56	2.22025
17.57	2.1867
17.58	2.21959
17.59	2.23176
17.6	2.23209
17.61	2.21137
17.62	2.21597
17.63	2.21367
17.64	2.21795
17.65	2.22091
17.66	2.20775
17.67	2.19821
17.68	2.2265
17.69	2.22913
17.7	2.22124
17.71	2.17617
17.72	2.20512
17.73	2.1992
17.74	2.17453
17.75	2.21861
17.76	2.22782
17.77	2.21367
17.78	2.21795
17.79	2.23604
17.8	2.23045
17.81	2.23473
17.82	2.22815
17.83	2.2288
17.84	2.20216
17.85	2.19788
17.86	2.21894
17.87	2.19558
17.88	2.2219
17.89	2.20611
17.9	2.18078
17.91	2.20216
17.92	2.21828
17.93	2.23999
17.94	2.24032
17.95	2.20643
17.96	2.20183
17.97	2.23078
17.98	2.21005
17.99	2.21532
18	2.21203
18.01	2.22091
18.02	2.20578
18.03	2.22354
18.04	2.21729
18.05	2.22584
18.06	2.18867
18.07	2.2265
18.08	2.25052
18.09	2.24887
18.1	2.22025
18.11	2.23407
18.12	2.22255
18.13	2.22321
18.14	2.26598
18.15	2.22387
18.16	2.22288
18.17	2.23341
18.18	2.23144
18.19	2.20084
18.2	2.21894
18.21	2.20972
18.22	2.22255
18.23	2.23736
18.24	2.22519
18.25	2.21663
18.26	2.21861
18.27	2.24591
18.28	2.20808
18.29	2.21236
18.3	2.22288
18.31	2.21005
18.32	2.23078
18.33	2.21696
18.34	2.23736
18.35	2.20117
18.36	2.21663
18.37	2.21203
18.38	2.21729
18.39	2.21532
18.4	2.19393
18.41	2.23604
18.42	2.2219
18.43	2.24394
18.44	2.23834
18.45	2.20479
18.46	2.21499
18.47	2.2117
18.48	2.21696
18.49	2.21926
18.5	2.20117
18.51	2.23999
18.52	2.20018
18.53	2.22519
18.54	2.23407
18.55	2.21959
18.56	2.2265
18.57	2.22749
18.58	2.22354
18.59	2.22716
18.6	2.23242
18.61	2.24394
18.62	2.23834
18.63	2.24657
18.64	2.23242
18.65	2.22288
18.66	2.21466
18.67	2.20446
18.68	2.24492
18.69	2.25084
18.7	2.2469
18.71	2.21269
18.72	2.21104
18.73	2.22782
18.74	2.22749
18.75	2.22025
18.76	2.21762
18.77	2.20907
18.78	2.20808
18.79	2.19163
18.8	2.23867
18.81	2.22946
18.82	2.20775
18.83	2.19328
18.84	2.20249
18.85	2.20018
18.86	2.21433
18.87	2.21762
18.88	2.22222
18.89	2.22946
18.9	2.23012
18.91	2.23407
18.92	2.24821
18.93	2.24065
18.94	2.22551
18.95	2.24328
18.96	2.20907
18.97	2.20446
18.98	2.20578
18.99	2.20709
19	2.20018
19.01	2.19295
19.02	2.22255
19.03	2.19755
19.04	2.22749
19.05	2.24196
19.06	2.21894
19.07	2.21203
19.08	2.21367
19.09	2.20578
19.1	2.21597
19.11	2.22617
19.12	2.23867
19.13	2.21992
19.14	2.22551
19.15	2.21597
19.16	2.20183
19.17	2.2219
19.18	2.23374
19.19	2.21597
19.2	2.22979
19.21	2.22946
19.22	2.22255
19.23	2.2242
19.24	2.21334
19.25	2.25216
19.26	2.24755
19.27	2.24525
19.28	2.22913
19.29	2.2515
19.3	2.23999
19.31	2.19591
19.32	2.21104
19.33	2.23374
19.34	2.20742
19.35	2.21894
19.36	2.24525
19.37	2.21367
19.38	2.22782
19.39	2.23703
19.4	2.24163
19.41	2.21795
19.42	2.21137
19.43	2.20545
19.44	2.21532
19.45	2.24427
19.46	2.22749
19.47	2.19953
19.48	2.17453
19.49	2.21137
19.5	2.20676
19.51	2.22551
19.52	2.25742
19.53	2.23604
19.54	2.18801
19.55	2.18867
19.56	2.22453
19.57	2.22321
19.58	2.2288
19.59	2.21992
19.6	2.19657
19.61	2.21466
19.62	2.22782
19.63	2.2594
19.64	2.21203
19.65	2.22946
19.66	2.22255
19.67	2.24624
19.68	2.22519
19.69	2.19032
19.7	2.21466
19.71	2.23275
19.72	2.20249
19.73	2.20907
19.74	2.22749
19.75	2.23966
19.76	2.22683
19.77	2.20117
19.78	2.21269
19.79	2.22979
19.8	2.2219
19.81	2.24591
19.82	2.22848
19.83	2.21992
19.84	2.21005
19.85	2.23308
19.86	2.21433
19.87	2.22913
19.88	2.22913
19.89	2.19788
19.9	2.20183
19.91	2.20775
19.92	2.23176
19.93	2.2163
19.94	2.1969
19.95	2.22157
19.96	2.20841
19.97	2.20512
19.98	2.23242
19.99	2.20709
20	2.20907
20.01	2.22025
20.02	2.239
20.03	2.22354
20.04	2.20512
20.05	2.23209
20.06	2.20413
20.07	2.20183
20.08	2.18867
20.09	2.22288
20.1	2.24492
20.11	2.21104
20.12	2.16597
20.13	2.1992
20.14	2.17913
20.15	2.18867
20.16	2.21005
20.17	2.21926
20.18	2.22584
20.19	2.21663
20.2	2.19854
20.21	2.19196
20.22	2.23242
20.23	2.21203
20.24	2.1867
20.25	2.22584
20.26	2.23374
20.27	2.2367
20.28	2.22749
20.29	2.21433
20.3	2.20084
20.31	2.23999
20.32	2.26203
20.33	2.22453
20.34	2.23275
20.35	2.23999
20.36	2.22782
20.37	2.2163
20.38	2.19295
20.39	2.19953
20.4	2.2163
20.41	2.22979
20.42	2.22453
20.43	2.22486
20.44	2.20512
20.45	2.22255
20.46	2.23769
20.47	2.21367
20.48	2.2242
20.49	2.22288
20.5	2.20841
20.51	2.18374
20.52	2.22222
20.53	2.26038
20.54	2.20315
20.55	2.22453
20.56	2.23604
20.57	2.23374
20.58	2.21005
20.59	2.21137
20.6	2.23242
20.61	2.21565
20.62	2.19558
20.63	2.20018
20.64	2.20972
20.65	2.21269
20.66	2.22453
20.67	2.22749
20.68	2.22584
20.69	2.21334
20.7	2.20808
20.71	2.25183
20.72	2.2265
20.73	2.21203
20.74	2.21137
20.75	2.21334
20.76	2.21696
20.77	2.20018
20.78	2.21236
20.79	2.22354
20.8	2.22025
20.81	2.20841
20.82	2.20972
20.83	2.24262
20.84	2.2288
20.85	2.25479
20.86	2.2265
20.87	2.25117
20.88	2.22486
20.89	2.22584
20.9	2.19624
20.91	2.22453
20.92	2.21301
20.93	2.20413
20.94	2.18242
20.95	2.18538
20.96	2.20611
20.97	2.21729
20.98	2.23637
20.99	2.2413
21	2.21959
21.01	2.19986
21.02	2.21236
21.03	2.23012
21.04	2.21038
21.05	2.21005
21.06	2.20611
21.07	2.20611
21.08	2.23242
21.09	2.22913
21.1	2.21466
21.11	2.20742
21.12	2.22913
21.13	2.20018
21.14	2.24098
21.15	2.25545
21.16	2.24361
21.17	2.22946
21.18	2.19426
21.19	2.22584
21.2	2.20183
21.21	2.21795
21.22	2.23045
21.23	2.23209
21.24	2.2288
21.25	2.20216
21.26	2.21663
21.27	2.21236
21.28	2.22584
21.29	2.24657
21.3	2.23571
21.31	2.20742
21.32	2.20446
21.33	2.19887
21.34	2.20972
21.35	2.21696
21.36	2.22551
21.37	2.21861
21.38	2.16696
21.39	2.21236
21.4	2.20874
21.41	2.24887
21.42	2.24262
21.43	2.2288
21.44	2.19459
21.45	2.23604
21.46	2.22058
21.47	2.20972
21.48	2.2094
21.49	2.20479
21.5	2.2219
21.51	2.20611
21.52	2.21104
21.53	2.21828
21.54	2.22551
21.55	2.21861
21.56	2.21038
21.57	2.20808
21.58	2.20051
21.59	2.20347
21.6	2.21071
21.61	2.24065
21.62	2.21663
21.63	2.22782
21.64	2.21038
21.65	2.19986
21.66	2.23209
21.67	2.18801
21.68	2.17518
21.69	2.214
21.7	2.21269
21.71	2.214
21.72	2.20084
21.73	2.19196
21.74	2.20315
21.75	2.20676
21.76	2.20545
21.77	2.18834
21.78	2.20545
21.79	2.24986
21.8	2.2038
21.81	2.20808
21.82	2.21663
21.83	2.21992
21.84	2.20709
21.85	2.18703
21.86	2.21269
21.87	2.22551
21.88	2.20545
21.89	2.19986
21.9	2.21861
21.91	2.21729
21.92	2.19196
21.93	2.19032
21.94	2.22387
21.95	2.21926
21.96	2.20742
21.97	2.21137
21.98	2.22979
21.99	2.21894
22	2.18966
22.01	2.22124
22.02	2.18801
22.03	2.20643
22.04	2.21894
22.05	2.20907
22.06	2.25282
22.07	2.24229
22.08	2.20874
22.09	2.21597
22.1	2.23736
22.11	2.22091
22.12	2.22354
22.13	2.2367
22.14	2.21992
22.15	2.22683
22.16	2.25117
22.17	2.24328
22.18	2.25117
22.19	2.24821
22.2	2.21203
22.21	2.22157
22.22	2.2094
22.23	2.19722
22.24	2.21005
22.25	2.21795
22.26	2.19854
22.27	2.20315
22.28	2.22058
22.29	2.20249
22.3	2.22387
22.31	2.21433
22.32	2.22453
22.33	2.22453
22.34	2.19328
22.35	2.17847
22.36	2.22321
22.37	2.24295
22.38	2.21532
22.39	2.20018
22.4	2.21269
22.41	2.24394
22.42	2.2163
22.43	2.23571
22.44	2.2219
22.45	2.22486
22.46	2.20018
22.47	2.17222
22.48	2.21334
22.49	2.22946
22.5	2.23933
22.51	2.21433
22.52	2.22453
22.53	2.21762
22.54	2.22321
22.55	2.2344
22.56	2.23209
22.57	2.23703
22.58	2.21696
22.59	2.21828
22.6	2.22025
22.61	2.23209
22.62	2.22584
22.63	2.20347
22.64	2.22091
22.65	2.23012
22.66	2.21992
22.67	2.23275
22.68	2.21367
22.69	2.19525
22.7	2.20709
22.71	2.22782
22.72	2.25808
22.73	2.25019
22.74	2.24361
22.75	2.24657
22.76	2.24591
22.77	2.23144
22.78	2.23473
22.79	2.19262
22.8	2.22913
22.81	2.21959
22.82	2.21861
22.83	2.19295
22.84	2.21565
22.85	2.20874
22.86	2.22749
22.87	2.22453
22.88	2.22354
22.89	2.20841
22.9	2.25052
22.91	2.24953
22.92	2.2242
22.93	2.20545
22.94	2.22288
22.95	2.2242
22.96	2.22486
22.97	2.19229
22.98	2.2344
22.99	2.23275
23	2.23933
23.01	2.23242
23.02	2.22683
23.03	2.25315
23.04	2.21565
23.05	2.20676
23.06	2.20545
23.07	2.21926
23.08	2.20874
23.09	2.24624
23.1	2.24887
23.11	2.24657
23.12	2.24788
23.13	2.2469
23.14	2.23538
23.15	2.22782
23.16	2.23144
23.17	2.22848
23.18	2.21959
23.19	2.23308
23.2	2.21499
23.21	2.23078
23.22	2.22782
23.23	2.22354
23.24	2.21992
23.25	2.21367
23.26	2.21696
23.27	2.22617
23.28	2.22486
23.29	2.22255
23.3	2.22157
23.31	2.21433
23.32	2.2413
23.33	2.23308
23.34	2.23012
23.35	2.21433
23.36	2.21828
23.37	2.20446
23.38	2.21203
23.39	2.19986
23.4	2.23111
23.41	2.22387
23.42	2.2219
23.43	2.22321
23.44	2.21532
23.45	2.21532
23.46	2.20972
23.47	2.25677
23.48	2.23473
23.49	2.22124
23.5	2.24394
23.51	2.23176
23.52	2.214
23.53	2.19459
23.54	2.2015
23.55	2.21565
23.56	2.21762
23.57	2.20841
23.58	2.19887
23.59	2.18012
23.6	2.16367
23.61	2.17683
23.62	2.22551
23.63	2.2163
23.64	2.21565
23.65	2.21236
23.66	2.2492
23.67	2.25841
23.68	2.20643
23.69	2.2117
23.7	2.23308
23.71	2.20742
23.72	2.21959
23.73	2.21301
23.74	2.19459
23.75	2.2117
23.76	2.2038
23.77	2.21203
23.78	2.19887
23.79	2.19788
23.8	2.21696
23.81	2.20578
23.82	2.20709
23.83	2.20084
23.84	2.25874
23.85	2.21762
23.86	2.22749
23.87	2.23966
23.88	2.2038
23.89	2.22124
23.9	2.22848
23.91	2.27716
23.92	2.22354
23.93	2.17288
23.94	2.20643
23.95	2.23769
23.96	2.21861
23.97	2.24229
23.98	2.21137
23.99	2.21795
24	2.2242
24.01	2.22222
24.02	2.22288
24.03	2.21565
24.04	2.20249
24.05	2.22255
24.06	2.20051
24.07	2.22387
24.08	2.22486
24.09	2.22091
24.1	2.23736
24.11	2.2288
24.12	2.2219
24.13	2.22749
24.14	2.22848
24.15	2.23407
24.16	2.20841
24.17	2.20512
24.18	2.21696
24.19	2.23111
24.2	2.24427
24.21	2.22058
24.22	2.19426
24.23	2.21038
24.24	2.18045
24.25	2.18801
24.26	2.2015
24.27	2.22288
24.28	2.2242
24.29	2.23407
24.3	2.22749
24.31	2.2265
24.32	2.18111
24.33	2.20841
24.34	2.23374
24.35	2.21203
24.36	2.20347
24.37	2.19393
24.38	2.2094
24.39	2.21269
24.4	2.21532
24.41	2.22321
24.42	2.239
24.43	2.25775
24.44	2.18045
24.45	2.21959
24.46	2.21762
24.47	2.1867
24.48	2.20018
24.49	2.2038
24.5	2.19525
24.51	2.2015
24.52	2.21696
24.53	2.21729
24.54	2.20183
24.55	2.18834
24.56	2.19459
24.57	2.22157
24.58	2.22354
24.59	2.21005
24.6	2.21828
24.61	2.24032
24.62	2.21367
24.63	2.21137
24.64	2.21828
24.65	2.22025
24.66	2.22519
24.67	2.24459
24.68	2.23209
24.69	2.22749
24.7	2.21795
24.71	2.25348
24.72	2.23637
24.73	2.23341
24.74	2.19788
24.75	2.21663
24.76	2.23209
24.77	2.23473
24.78	2.2219
24.79	2.2265
24.8	2.22124
24.81	2.21565
24.82	2.21203
24.83	2.19624
24.84	2.21269
24.85	2.22749
24.86	2.24229
24.87	2.22749
24.88	2.21729
24.89	2.21071
24.9	2.21466
24.91	2.22979
24.92	2.21565
24.93	2.19722
24.94	2.21203
24.95	2.21597
24.96	2.22716
24.97	2.22321
24.98	2.214
24.99	2.22321
25	2.19821
25.01	2.19328
25.02	2.22913
25.03	2.22519
25.04	2.1969
25.05	2.20479
25.06	2.23571
25.07	2.23045
25.08	2.2163
25.09	2.20315
25.1	2.19755
25.11	2.20775
25.12	2.22782
25.13	2.19459
25.14	2.18045
25.15	2.21071
25.16	2.21795
25.17	2.2163
25.18	2.23242
25.19	2.24821
25.2	2.20841
25.21	2.19986
25.22	2.20282
25.23	2.22913
25.24	2.21828
25.25	2.22157
25.26	2.20249
25.27	2.22025
25.28	2.23111
25.29	2.23834
25.3	2.21828
25.31	2.22749
25.32	2.2015
25.33	2.21301
25.34	2.23012
25.35	2.22124
25.36	2.21926
25.37	2.25183
25.38	2.23769
25.39	2.22815
25.4	2.24262
25.41	2.23176
25.42	2.21565
25.43	2.2015
25.44	2.22387
25.45	2.21696
25.46	2.21367
25.47	2.20709
25.48	2.21137
25.49	2.22222
25.5	2.22255
25.51	2.20413
25.52	2.21959
25.53	2.22091
25.54	2.22815
25.55	2.2242
25.56	2.214
25.57	2.2265
25.58	2.23473
25.59	2.22025
25.6	2.19558
25.61	2.22782
25.62	2.22222
25.63	2.2367
25.64	2.21894
25.65	2.20841
25.66	2.21466
25.67	2.20972
25.68	2.23144
25.69	2.22584
25.7	2.23703
25.71	2.24032
25.72	2.24953
25.73	2.24953
25.74	2.18801
25.75	2.19492
25.76	2.22584
25.77	2.2288
25.78	2.20216
25.79	2.21137
25.8	2.23176
25.81	2.19854
25.82	2.22453
25.83	2.17222
25.84	2.20117
25.85	2.20676
25.86	2.214
25.87	2.20282
25.88	2.2163
25.89	2.21301
25.9	2.22782
25.91	2.24821
25.92	2.23801
25.93	2.24525
25.94	2.23538
25.95	2.22782
25.96	2.21301
25.97	2.22124
25.98	2.22519
25.99	2.20216
26	2.21137
26.01	2.22157
26.02	2.21696
26.03	2.23407
26.04	2.20183
26.05	2.24953
26.06	2.21992
26.07	2.23275
26.08	2.20676
26.09	2.22157
26.1	2.22255
26.11	2.24887
26.12	2.22091
26.13	2.22255
26.14	2.23242
26.15	2.22157
26.16	2.23703
26.17	2.20578
26.18	2.22058
26.19	2.2288
26.2	2.22222
26.21	2.2288
26.22	2.23374
26.23	2.21762
26.24	2.22025
26.25	2.22815
26.26	2.18407
26.27	2.1913
26.28	2.23966
26.29	2.22453
26.3	2.21071
26.31	2.23012
26.32	2.19525
26.33	2.22222
26.34	2.24591
26.35	2.2242
26.36	2.23736
26.37	2.20347
26.38	2.22387
26.39	2.23242
26.4	2.20643
26.41	2.22946
26.42	2.21236
26.43	2.2344
26.44	2.25808
26.45	2.23111
26.46	2.20775
26.47	2.2265
26.48	2.25084
26.49	2.2413
26.5	2.21334
26.51	2.20808
26.52	2.21334
26.53	2.22288
26.54	2.21203
26.55	2.20643
26.56	2.21137
26.57	2.19295
26.58	2.20183
26.59	2.23604
26.6	2.23374
26.61	2.23407
26.62	2.24163
26.63	2.19821
26.64	2.20907
26.65	2.20216
26.66	2.20907
26.67	2.23374
26.68	2.21828
26.69	2.22354
26.7	2.21367
26.71	2.23341
26.72	2.23209
26.73	2.20315
26.74	2.21926
26.75	2.21466
26.76	2.20084
26.77	2.21861
26.78	2.20183
26.79	2.19854
26.8	2.19097
26.81	2.22519
26.82	2.20709
26.83	2.22124
26.84	2.23111
26.85	2.23933
26.86	2.25052
26.87	2.25019
26.88	2.22782
26.89	2.19821
26.9	2.21959
26.91	2.23769
26.92	2.23637
26.93	2.22091
26.94	2.20643
26.95	2.22387
26.96	2.22782
26.97	2.21663
26.98	2.23176
26.99	2.20183
27	2.21729
27.01	2.22058
27.02	2.23407
27.03	2.21861
27.04	2.19196
27.05	2.21236
27.06	2.21926
27.07	2.19064
27.08	2.16235
27.09	2.2038
27.1	2.21959
27.11	2.22584
27.12	2.21597
27.13	2.21301
27.14	2.23275
27.15	2.19854
27.16	2.2038
27.17	2.21795
27.18	2.23867
27.19	2.2163
27.2	2.2038
27.21	2.23769
27.22	2.23999
27.23	2.20808
27.24	2.23801
27.25	2.24492
27.26	2.22354
27.27	2.21597
27.28	2.2242
27.29	2.19393
27.3	2.18538
27.31	2.22519
27.32	2.23078
27.33	2.21795
27.34	2.22946
27.35	2.20282
27.36	2.21203
27.37	2.21038
27.38	2.22749
27.39	2.21466
27.4	2.20709
27.41	2.21597
27.42	2.22453
27.43	2.22091
27.44	2.20676
27.45	2.22913
27.46	2.2163
27.47	2.20874
27.48	2.20051
27.49	2.21663
27.5	2.22848
27.51	2.20972
27.52	2.23144
27.53	2.21005
27.54	2.21992
27.55	2.23012
27.56	2.239
27.57	2.2163
27.58	2.22453
27.59	2.22584
27.6	2.21992
27.61	2.21269
27.62	2.24953
27.63	2.20907
27.64	2.19558
27.65	2.21696
27.66	2.2492
27.67	2.2538
27.68	2.23176
27.69	2.22584
27.7	2.21236
27.71	2.21729
27.72	2.23209
27.73	2.23933
27.74	2.22222
27.75	2.2242
27.76	2.19426
27.77	2.21795
27.78	2.19854
27.79	2.22091
27.8	2.21532
27.81	2.19196
27.82	2.22124
27.83	2.21466
27.84	2.22387
27.85	2.18374
27.86	2.21137
27.87	2.23242
27.88	2.21071
27.89	2.21532
27.9	2.20841
27.91	2.22979
27.92	2.23341
27.93	2.25413
27.94	2.2469
27.95	2.21762
27.96	2.22288
27.97	2.22354
27.98	2.19393
27.99	2.20249
28	2.21926
28.01	2.22519
28.02	2.20117
28.03	2.22782
28.04	2.20578
28.05	2.21894
28.06	2.20742
28.07	2.23571
28.08	2.22946
28.09	2.2117
28.1	2.214
28.11	2.24854
28.12	2.25446
28.13	2.2015
28.14	2.19361
28.15	2.20051
28.16	2.19426
28.17	2.22551
28.18	2.21269
28.19	2.25479
28.2	2.22519
28.21	2.23933
28.22	2.22551
28.23	2.20183
28.24	2.20841
28.25	2.23012
28.26	2.20315
28.27	2.19163
28.28	2.19722
28.29	2.23637
28.3	2.20413
28.31	2.23144
28.32	2.21894
28.33	2.22091
28.34	2.24854
28.35	2.2413
28.36	2.21926
28.37	2.20874
28.38	2.21729
28.39	2.21301
28.4	2.19854
28.41	2.22453
28.42	2.21433
28.43	2.21696
28.44	2.22683
28.45	2.21367
28.46	2.23176
28.47	2.19854
28.48	2.21334
28.49	2.2367
28.5	2.18834
28.51	2.21071
28.52	2.21301
28.53	2.26466
28.54	2.24065
28.55	2.21663
28.56	2.22913
28.57	2.20479
28.58	2.20512
28.59	2.20972
28.6	2.2242
28.61	2.18966
28.62	2.17091
28.63	2.18111
28.64	2.22617
28.65	2.23933
28.66	2.21532
28.67	2.21367
28.68	2.21038
28.69	2.2265
28.7	2.2367
28.71	2.20117
28.72	2.22058
28.73	2.22453
28.74	2.23209
28.75	2.239
28.76	2.23341
28.77	2.25183
28.78	2.21499
28.79	2.20808
28.8	2.24525
28.81	2.20479
28.82	2.22551
28.83	2.24492
28.84	2.24459
28.85	2.21367
28.86	2.20315
28.87	2.21959
28.88	2.22848
28.89	2.2344
28.9	2.24196
28.91	2.21104
28.92	2.23209
28.93	2.20578
28.94	2.1992
28.95	2.2288
28.96	2.22551
28.97	2.24229
28.98	2.22288
28.99	2.22387
29	2.23473
29.01	2.20051
29.02	2.22321
29.03	2.21795
29.04	2.22519
29.05	2.21729
29.06	2.20611
29.07	2.20347
29.08	2.16137
29.09	2.22157
29.1	2.22058
29.11	2.20808
29.12	2.2038
29.13	2.18768
29.14	2.20907
29.15	2.22025
29.16	2.20183
29.17	2.19986
29.18	2.21137
29.19	2.21565
29.2	2.20446
29.21	2.2163
29.22	2.22124
29.23	2.23242
29.24	2.2219
29.25	2.23538
29.26	2.22124
29.27	2.21729
29.28	2.22091
29.29	2.2219
29.3	2.22716
29.31	2.23703
29.32	2.18966
29.33	2.22453
29.34	2.23801
29.35	2.24065
29.36	2.24525
29.37	2.21236
29.38	2.19821
29.39	2.2038
29.4	2.17617
29.41	2.24361
29.42	2.21038
29.43	2.22321
29.44	2.23144
29.45	2.22157
29.46	2.21334
29.47	2.24986
29.48	2.25677
29.49	2.23473
29.5	2.21729
29.51	2.20775
29.52	2.19887
29.53	2.21071
29.54	2.2288
29.55	2.21203
29.56	2.21038
29.57	2.23308
29.58	2.23209
29.59	2.20841
29.6	2.21565
29.61	2.22782
29.62	2.24295
29.63	2.2242
29.64	2.22551
29.65	2.22124
29.66	2.23078
29.67	2.23407
29.68	2.22091
29.69	2.22913
29.7	2.20808
29.71	2.21729
29.72	2.18736
29.73	2.18538
29.74	2.22321
29.75	2.21597
29.76	2.2117
29.77	2.20578
29.78	2.22815
29.79	2.22519
29.8	2.19229
29.81	2.2242
29.82	2.21367
29.83	2.23834
29.84	2.20841
29.85	2.21269
29.86	2.22782
29.87	2.2015
29.88	2.19722
29.89	2.20117
29.9	2.21894
29.91	2.23275
29.92	2.20972
29.93	2.21861
29.94	2.21696
29.95	2.21367
29.96	2.23538
29.97	2.22387
29.98	2.23999
29.99	2.21762
30	2.23407
