"BIO-KINE ASCII FILE"
"_COMMENT"	"MOS-500 Spectrometer"
"_COMMENT"	"Kinetics measurement"
"_COMMENT"	"Y Unit : Volt,  X Unit : s"
"_COMMENT"	"Excitation wavelength : 380 nm"
"_COMMENT"	"Fentes bandwidth =  1 nm"
"_COMMENT"	"HV= 800V"
"_COMMENT"	"Timebase  1 =  .01 s   3001 pts"
"_SFM"	"SFM-400 /S  Advanced mode"
"_SFM"	"Ratio : S1: 2.5, S2: 0, S3: 0, S4: 1"
"_SFM"	"Content : S1: , S2: , S3: , S4:"
"_SFM"	"Concentration : S1: , S2: , S3: , S4:"
"_SFM"	"Total volume : 209 µl  Flow : 3.5 mL/s"
"_SFM"	"Acquisition start :  10 ms before stop"
"_SFM"	"cuve=FC-15, s1=10 ml , s2=10 ml , s3=10 ml , s4=1.9 ml"
"_UNITX"	"s"
"_UNITY"	"Volt"
"_DELTAX"	0
"_DATA"
1e-300	6.20623
0.01	6.59539
0.02	6.73552
0.03	6.79145
0.04	6.76776
0.05	6.78092
0.06	6.75329
0.07	6.75954
0.08	6.7523
0.09	6.75954
0.1	6.75131
0.11	6.76579
0.12	6.75625
0.13	6.74177
0.14	6.7648
0.15	6.77171
0.16	6.77237
0.17	6.75954
0.18	6.74901
0.19	6.74572
0.2	6.72763
0.21	6.73618
0.22	6.73454
0.23	6.74736
0.24	6.74111
0.25	6.72829
0.26	6.75329
0.27	6.73355
0.28	6.74243
0.29	6.72993
0.3	6.72565
0.31	6.7375
0.32	6.73125
0.33	6.71381
0.34	6.71282
0.35	6.68124
0.36	6.69967
0.37	6.70164
0.38	6.69967
0.39	6.69276
0.4	6.67927
0.41	6.68519
0.42	6.67105
0.43	6.69046
0.44	6.68026
0.45	6.67302
0.46	6.65855
0.47	6.65723
0.48	6.64506
0.49	6.6671
0.5	6.63355
0.51	6.63552
0.52	6.6523
0.53	6.63881
0.54	6.64473
0.55	6.63519
0.56	6.65131
0.57	6.62631
0.58	6.62401
0.59	6.62828
0.6	6.60526
0.61	6.60065
0.62	6.60624
0.63	6.60591
0.64	6.59966
0.65	6.58322
0.66	6.58157
0.67	6.5796
0.68	6.55723
0.69	6.56249
0.7	6.5694
0.71	6.55065
0.72	6.55822
0.73	6.56545
0.74	6.56512
0.75	6.53716
0.76	6.5694
0.77	6.52631
0.78	6.53848
0.79	6.54769
0.8	6.5467
0.81	6.5569
0.82	6.51775
0.83	6.52302
0.84	6.53321
0.85	6.53025
0.86	6.50821
0.87	6.48453
0.88	6.49999
0.89	6.50295
0.9	6.4967
0.91	6.4819
0.92	6.45788
0.93	6.46315
0.94	6.4569
0.95	6.46117
0.96	6.4513
0.97	6.45492
0.98	6.45953
0.99	6.44999
1	6.4342
1.01	6.43716
1.02	6.43979
1.03	6.42828
1.04	6.4069
1.05	6.4342
1.06	6.42301
1.07	6.42268
1.08	6.4115
1.09	6.43124
1.1	6.4194
1.11	6.38946
1.12	6.40032
1.13	6.37795
1.14	6.3763
1.15	6.39308
1.16	6.38617
1.17	6.39045
1.18	6.39012
1.19	6.36051
1.2	6.36643
1.21	6.35689
1.22	6.349
1.23	6.33683
1.24	6.35854
1.25	6.33387
1.26	6.32466
1.27	6.31643
1.28	6.32202
1.29	6.33387
1.3	6.31084
1.31	6.31742
1.32	6.29669
1.33	6.29472
1.34	6.30689
1.35	6.299
1.36	6.28781
1.37	6.29077
1.38	6.27597
1.39	6.28715
1.4	6.26742
1.41	6.25886
1.42	6.249
1.43	6.26939
1.44	6.26248
1.45	6.23617
1.46	6.23485
1.47	6.23386
1.48	6.21248
1.49	6.23057
1.5	6.21807
1.51	6.23386
1.52	6.22432
1.53	6.21182
1.54	6.19801
1.55	6.20722
1.56	6.20196
1.57	6.18419
1.58	6.17498
1.59	6.19307
1.6	6.20031
1.61	6.19242
1.62	6.16972
1.63	6.16084
1.64	6.15919
1.65	6.15722
1.66	6.16577
1.67	6.17169
1.68	6.16643
1.69	6.13386
1.7	6.12202
1.71	6.13715
1.72	6.13189
1.73	6.11708
1.74	6.10853
1.75	6.12301
1.76	6.12728
1.77	6.12597
1.78	6.11741
1.79	6.12004
1.8	6.09472
1.81	6.08518
1.82	6.08386
1.83	6.08452
1.84	6.07498
1.85	6.05985
1.86	6.07169
1.87	6.07498
1.88	6.06642
1.89	6.0605
1.9	6.07958
1.91	6.05557
1.92	6.03057
1.93	6.04241
1.94	6.06675
1.95	6.05458
1.96	6.02892
1.97	6.03353
1.98	6.04537
1.99	6.03945
2	6.02399
2.01	6.03419
2.02	6.00425
2.03	5.9957
2.04	5.99373
2.05	6.00721
2.06	5.98945
2.07	5.99307
2.08	5.99044
2.09	5.97892
2.1	5.98715
2.11	5.97761
2.12	5.96313
2.13	5.9684
2.14	5.94734
2.15	5.94372
2.16	5.96083
2.17	5.96938
2.18	5.94471
2.19	5.92826
2.2	5.93254
2.21	5.92695
2.22	5.91083
2.23	5.93122
2.24	5.91774
2.25	5.91675
2.26	5.92333
2.27	5.90984
2.28	5.898
2.29	5.90458
2.3	5.88254
2.31	5.87793
2.32	5.87267
2.33	5.89964
2.34	5.89537
2.35	5.86445
2.36	5.85951
2.37	5.86247
2.38	5.85951
2.39	5.88912
2.4	5.86905
2.41	5.85195
2.42	5.84109
2.43	5.8503
2.44	5.84208
2.45	5.83912
2.46	5.82596
2.47	5.84175
2.48	5.82333
2.49	5.82234
2.5	5.80293
2.51	5.79339
2.52	5.78615
2.53	5.80819
2.54	5.80688
2.55	5.80819
2.56	5.81412
2.57	5.78122
2.58	5.80227
2.59	5.78451
2.6	5.77563
2.61	5.78122
2.62	5.78451
2.63	5.76938
2.64	5.78319
2.65	5.76477
2.66	5.75984
2.67	5.74898
2.68	5.73451
2.69	5.73385
2.7	5.73944
2.71	5.74997
2.72	5.73977
2.73	5.74701
2.74	5.74142
2.75	5.73484
2.76	5.72892
2.77	5.73056
2.78	5.71247
2.79	5.70293
2.8	5.69865
2.81	5.70293
2.82	5.70161
2.83	5.70819
2.84	5.70622
2.85	5.69207
2.86	5.66641
2.87	5.66345
2.88	5.67069
2.89	5.66378
2.9	5.66707
2.91	5.66247
2.92	5.66773
2.93	5.67694
2.94	5.65062
2.95	5.64766
2.96	5.62168
2.97	5.63187
2.98	5.64043
2.99	5.64865
3	5.64503
3.01	5.62793
3.02	5.61345
3.03	5.6072
3.04	5.62628
3.05	5.6049
3.06	5.61279
3.07	5.61773
3.08	5.60589
3.09	5.59898
3.1	5.60852
3.11	5.58746
3.12	5.56871
3.13	5.56904
3.14	5.57134
3.15	5.57496
3.16	5.56575
3.17	5.55917
3.18	5.55555
3.19	5.55358
3.2	5.5549
3.21	5.55687
3.22	5.53648
3.23	5.53154
3.24	5.54338
3.25	5.54865
3.26	5.54305
3.27	5.52134
3.28	5.52562
3.29	5.50358
3.3	5.51575
3.31	5.51378
3.32	5.50983
3.33	5.51312
3.34	5.50522
3.35	5.50621
3.36	5.49108
3.37	5.49174
3.38	5.48614
3.39	5.48746
3.4	5.46838
3.41	5.48516
3.42	5.4743
3.43	5.47233
3.44	5.46476
3.45	5.45621
3.46	5.46937
3.47	5.4368
3.48	5.43549
3.49	5.45128
3.5	5.44437
3.51	5.42134
3.52	5.44009
3.53	5.43318
3.54	5.44141
3.55	5.42726
3.56	5.4197
3.57	5.40226
3.58	5.39766
3.59	5.40193
3.6	5.39733
3.61	5.42134
3.62	5.41838
3.63	5.41673
3.64	5.40259
3.65	5.39305
3.66	5.37726
3.67	5.40292
3.68	5.397
3.69	5.38647
3.7	5.39535
3.71	5.37364
3.72	5.38252
3.73	5.36311
3.74	5.3789
3.75	5.38121
3.76	5.3493
3.77	5.35588
3.78	5.36838
3.79	5.35851
3.8	5.35983
3.81	5.34897
3.82	5.34404
3.83	5.32528
3.84	5.32101
3.85	5.32956
3.86	5.32463
3.87	5.32528
3.88	5.31114
3.89	5.30555
3.9	5.31871
3.91	5.31706
3.92	5.29469
3.93	5.30127
3.94	5.31443
3.95	5.2914
3.96	5.29996
3.97	5.25818
3.98	5.26673
3.99	5.28515
4	5.29667
4.01	5.29042
4.02	5.25949
4.03	5.26245
4.04	5.27956
4.05	5.27792
4.06	5.24995
4.07	5.26278
4.08	5.26541
4.09	5.26311
4.1	5.2437
4.11	5.2437
4.12	5.24041
4.13	5.24699
4.14	5.24008
4.15	5.23318
4.16	5.22068
4.17	5.2437
4.18	5.2437
4.19	5.22495
4.2	5.22495
4.21	5.21739
4.22	5.19304
4.23	5.21443
4.24	5.19962
4.25	5.2016
4.26	5.20653
4.27	5.19633
4.28	5.19502
4.29	5.18087
4.3	5.16771
4.31	5.18416
4.32	5.19206
4.33	5.18712
4.34	5.18219
4.35	5.18745
4.36	5.19173
4.37	5.16771
4.38	5.16936
4.39	5.17824
4.4	5.14271
4.41	5.15028
4.42	5.14041
4.43	5.13646
4.44	5.13811
4.45	5.15883
4.46	5.15225
4.47	5.15521
4.48	5.13745
4.49	5.12067
4.5	5.13219
4.51	5.12627
4.52	5.12396
4.53	5.10587
4.54	5.09534
4.55	5.12067
4.56	5.10752
4.57	5.12265
4.58	5.09008
4.59	5.09534
4.6	5.096
4.61	5.10455
4.62	5.11245
4.63	5.09271
4.64	5.08251
4.65	5.08153
4.66	5.08811
4.67	5.08482
4.68	5.07265
4.69	5.06804
4.7	5.06442
4.71	5.07594
4.72	5.04337
4.73	5.0585
4.74	5.05751
4.75	5.05192
4.76	5.0539
4.77	5.0664
4.78	5.04337
4.79	5.03547
4.8	5.0187
4.81	5.02955
4.82	5.0256
4.83	5.02495
4.84	5.01771
4.85	5.0358
4.86	5.02429
4.87	5.02297
4.88	5.021
4.89	5.02495
4.9	5.02067
4.91	4.99468
4.92	4.99501
4.93	5.01837
4.94	5.01047
4.95	5.00028
4.96	4.99666
4.97	4.9858
4.98	4.97791
4.99	4.9835
5	5.0006
5.01	4.99074
5.02	4.97692
5.03	4.96902
5.04	4.96212
5.05	4.96672
5.06	4.9506
5.07	4.9585
5.08	4.96277
5.09	4.95685
5.1	4.95718
5.11	4.95948
5.12	4.95521
5.13	4.9506
5.14	4.94534
5.15	4.95916
5.16	4.95948
5.17	4.94994
5.18	4.94764
5.19	4.92363
5.2	4.94468
5.21	4.94435
5.22	4.9233
5.23	4.91672
5.24	4.921
5.25	4.91409
5.26	4.92758
5.27	4.91409
5.28	4.91508
5.29	4.9154
5.3	4.88843
5.31	4.89468
5.32	4.87099
5.33	4.88415
5.34	4.88251
5.35	4.90356
5.36	4.90093
5.37	4.89501
5.38	4.88415
5.39	4.8779
5.4	4.85882
5.41	4.88448
5.42	4.86606
5.43	4.85685
5.44	4.86902
5.45	4.86902
5.46	4.86507
5.47	4.87067
5.48	4.86771
5.49	4.85553
5.5	4.8483
5.51	4.86376
5.52	4.86014
5.53	4.83284
5.54	4.84205
5.55	4.83382
5.56	4.84106
5.57	4.82988
5.58	4.84501
5.59	4.8279
5.6	4.8154
5.61	4.8108
5.62	4.8256
5.63	4.82724
5.64	4.81441
5.65	4.80389
5.66	4.8154
5.67	4.80882
5.68	4.81935
5.69	4.81573
5.7	4.80191
5.71	4.7927
5.72	4.7983
5.73	4.8029
5.74	4.79435
5.75	4.78711
5.76	4.79073
5.77	4.79566
5.78	4.78876
5.79	4.77264
5.8	4.75783
5.81	4.76474
5.82	4.78908
5.83	4.79468
5.84	4.79665
5.85	4.76277
5.86	4.74106
5.87	4.74829
5.88	4.78448
5.89	4.77757
5.9	4.76178
5.91	4.75718
5.92	4.75915
5.93	4.7631
5.94	4.75323
5.95	4.74007
5.96	4.73152
5.97	4.74566
5.98	4.73546
5.99	4.74665
6	4.73711
6.01	4.73053
6.02	4.7325
6.03	4.72823
6.04	4.72625
6.05	4.72592
6.06	4.71638
6.07	4.72461
6.08	4.73086
6.09	4.71013
6.1	4.71079
6.11	4.72625
6.12	4.72823
6.13	4.71013
6.14	4.70158
6.15	4.70388
6.16	4.70224
6.17	4.72296
6.18	4.70586
6.19	4.7075
6.2	4.695
6.21	4.68612
6.22	4.66967
6.23	4.6802
6.24	4.68711
6.25	4.69895
6.26	4.68645
6.27	4.67395
6.28	4.69204
6.29	4.66638
6.3	4.67033
6.31	4.68053
6.32	4.67559
6.33	4.65849
6.34	4.66441
6.35	4.66934
6.36	4.65355
6.37	4.6598
6.38	4.6552
6.39	4.65092
6.4	4.6473
6.41	4.65125
6.42	4.67461
6.43	4.65651
6.44	4.65882
6.45	4.64303
6.46	4.65092
6.47	4.62559
6.48	4.61737
6.49	4.62132
6.5	4.62822
6.51	4.63645
6.52	4.62855
6.53	4.61441
6.54	4.62428
6.55	4.6223
6.56	4.60618
6.57	4.62921
6.58	4.62329
6.59	4.60026
6.6	4.60421
6.61	4.60947
6.62	4.59566
6.63	4.60816
6.64	4.60553
6.65	4.61803
6.66	4.60882
6.67	4.59533
6.68	4.58743
6.69	4.5825
6.7	4.57789
6.71	4.57526
6.72	4.58414
6.73	4.58842
6.74	4.58283
6.75	4.57658
6.76	4.56243
6.77	4.58085
6.78	4.56704
6.79	4.58217
6.8	4.56638
6.81	4.57033
6.82	4.56671
6.83	4.56046
6.84	4.56441
6.85	4.56079
6.86	4.57033
6.87	4.55487
6.88	4.5348
6.89	4.55552
6.9	4.54927
6.91	4.5473
6.92	4.5723
6.93	4.53283
6.94	4.53579
6.95	4.53842
6.96	4.54335
6.97	4.5496
6.98	4.54631
6.99	4.53052
7	4.54796
7.01	4.53414
7.02	4.55421
7.03	4.53513
7.04	4.51276
7.05	4.52033
7.06	4.52131
7.07	4.52197
7.08	4.51046
7.09	4.52592
7.1	4.52
7.11	4.50289
7.12	4.50355
7.13	4.51342
7.14	4.49269
7.15	4.51276
7.16	4.50519
7.17	4.49434
7.18	4.50355
7.19	4.50914
7.2	4.50454
7.21	4.48842
7.22	4.48908
7.23	4.49565
7.24	4.49138
7.25	4.4825
7.26	4.49993
7.27	4.4894
7.28	4.49434
7.29	4.48414
7.3	4.50454
7.31	4.47756
7.32	4.48151
7.33	4.47559
7.34	4.4644
7.35	4.47032
7.36	4.47657
7.37	4.47394
7.38	4.47756
7.39	4.47394
7.4	4.47197
7.41	4.4519
7.42	4.44499
7.43	4.43184
7.44	4.44006
7.45	4.44269
7.46	4.47394
7.47	4.46638
7.48	4.46506
7.49	4.45651
7.5	4.43447
7.51	4.46177
7.52	4.4473
7.53	4.42953
7.54	4.44763
7.55	4.44697
7.56	4.43151
7.57	4.43973
7.58	4.44631
7.59	4.43874
7.6	4.42953
7.61	4.44434
7.62	4.43217
7.63	4.43217
7.64	4.43282
7.65	4.42855
7.66	4.42394
7.67	4.43184
7.68	4.42263
7.69	4.43973
7.7	4.44236
7.71	4.43217
7.72	4.4223
7.73	4.41177
7.74	4.41802
7.75	4.41901
7.76	4.41999
7.77	4.40716
7.78	4.42888
7.79	4.42263
7.8	4.41736
7.81	4.41045
7.82	4.40256
7.83	4.38841
7.84	4.4144
7.85	4.41539
7.86	4.40585
7.87	4.39993
7.88	4.4042
7.89	4.39105
7.9	4.39368
7.91	4.38973
7.92	4.3769
7.93	4.37855
7.94	4.38249
7.95	4.40124
7.96	4.39236
7.97	4.37855
7.98	4.37591
7.99	4.3917
8	4.37723
8.01	4.37131
8.02	4.3792
8.03	4.37887
8.04	4.37427
8.05	4.3723
8.06	4.37394
8.07	4.36933
8.08	4.34861
8.09	4.35914
8.1	4.37065
8.11	4.34894
8.12	4.34499
8.13	4.37131
8.14	4.35881
8.15	4.35683
8.16	4.3621
8.17	4.35124
8.18	4.3542
8.19	4.34104
8.2	4.35387
8.21	4.35618
8.22	4.3417
8.23	4.33677
8.24	4.35914
8.25	4.32789
8.26	4.33216
8.27	4.32723
8.28	4.33743
8.29	4.34072
8.3	4.32295
8.31	4.34006
8.32	4.32591
8.33	4.32525
8.34	4.31999
8.35	4.32394
8.36	4.33578
8.37	4.32986
8.38	4.32591
8.39	4.30946
8.4	4.32328
8.41	4.31242
8.42	4.32065
8.43	4.31769
8.44	4.3246
8.45	4.31539
8.46	4.30815
8.47	4.29696
8.48	4.33019
8.49	4.31144
8.5	4.32624
8.51	4.31275
8.52	4.30749
8.53	4.29663
8.54	4.30946
8.55	4.31769
8.56	4.29466
8.57	4.28907
8.58	4.29433
8.59	4.28709
8.6	4.28348
8.61	4.29203
8.62	4.30519
8.63	4.2996
8.64	4.2815
8.65	4.28282
8.66	4.29071
8.67	4.3019
8.68	4.28183
8.69	4.28315
8.7	4.28709
8.71	4.28709
8.72	4.27591
8.73	4.27788
8.74	4.27032
8.75	4.27657
8.76	4.26736
8.77	4.26802
8.78	4.27065
8.79	4.27558
8.8	4.2667
8.81	4.27328
8.82	4.28677
8.83	4.26933
8.84	4.25979
8.85	4.26308
8.86	4.24992
8.87	4.25946
8.88	4.26966
8.89	4.26341
8.9	4.28216
8.91	4.26736
8.92	4.26538
8.93	4.25913
8.94	4.2713
8.95	4.26374
8.96	4.25913
8.97	4.24762
8.98	4.25584
8.99	4.25091
9	4.24499
9.01	4.24565
9.02	4.26867
9.03	4.26045
9.04	4.23512
9.05	4.25946
9.06	4.24828
9.07	4.23676
9.08	4.23512
9.09	4.23315
9.1	4.23775
9.11	4.23775
9.12	4.23084
9.13	4.23808
9.14	4.24301
9.15	4.2394
9.16	4.22097
9.17	4.22459
9.18	4.21078
9.19	4.20913
9.2	4.2315
9.21	4.23249
9.22	4.21111
9.23	4.2213
9.24	4.21407
9.25	4.21209
9.26	4.21867
9.27	4.22722
9.28	4.19992
9.29	4.20518
9.3	4.22591
9.31	4.22196
9.32	4.20354
9.33	4.21933
9.34	4.22097
9.35	4.22953
9.36	4.22887
9.37	4.22262
9.38	4.21308
9.39	4.19893
9.4	4.17821
9.41	4.19268
9.42	4.2042
9.43	4.19005
9.44	4.19268
9.45	4.20288
9.46	4.19005
9.47	4.21242
9.48	4.20354
9.49	4.20255
9.5	4.19104
9.51	4.20782
9.52	4.19137
9.53	4.18972
9.54	4.19926
9.55	4.18117
9.56	4.1815
9.57	4.19696
9.58	4.19597
9.59	4.18216
9.6	4.18545
9.61	4.19762
9.62	4.18282
9.63	4.19499
9.64	4.19236
9.65	4.1963
9.66	4.19038
9.67	4.18084
9.68	4.17657
9.69	4.1792
9.7	4.18183
9.71	4.17821
9.72	4.15946
9.73	4.16999
9.74	4.18018
9.75	4.16933
9.76	4.16768
9.77	4.18709
9.78	4.17558
9.79	4.17459
9.8	4.1667
9.81	4.16571
9.82	4.16045
9.83	4.17393
9.84	4.15749
9.85	4.16933
9.86	4.16867
9.87	4.16801
9.88	4.18051
9.89	4.16604
9.9	4.15387
9.91	4.15058
9.92	4.16505
9.93	4.16406
9.94	4.14597
9.95	4.15288
9.96	4.14466
9.97	4.13248
9.98	4.15321
9.99	4.16341
10	4.14959
10.01	4.13841
10.02	4.15452
10.03	4.14038
10.04	4.14795
10.05	4.14433
10.06	4.13281
10.07	4.16538
10.08	4.15288
10.09	4.16637
10.1	4.14268
10.11	4.14762
10.12	4.14268
10.13	4.12821
10.14	4.13577
10.15	4.12854
10.16	4.13216
10.17	4.13248
10.18	4.13084
10.19	4.13413
10.2	4.13841
10.21	4.14893
10.22	4.13742
10.23	4.12887
10.24	4.13545
10.25	4.14334
10.26	4.12952
10.27	4.13084
10.28	4.12492
10.29	4.12295
10.3	4.13314
10.31	4.12459
10.32	4.13742
10.33	4.13347
10.34	4.11998
10.35	4.10485
10.36	4.12591
10.37	4.144
10.38	4.11637
10.39	4.11604
10.4	4.13512
10.41	4.13643
10.42	4.11933
10.43	4.12196
10.44	4.10419
10.45	4.11472
10.46	4.11768
10.47	4.09663
10.48	4.11077
10.49	4.09794
10.5	4.10518
10.51	4.10683
10.52	4.11571
10.53	4.10946
10.54	4.11637
10.55	4.11308
10.56	4.10354
10.57	4.0963
10.58	4.1065
10.59	4.11077
10.6	4.0815
10.61	4.10058
10.62	4.09926
10.63	4.10419
10.64	4.10255
10.65	4.10781
10.66	4.10913
10.67	4.09729
10.68	4.094
10.69	4.08314
10.7	4.09663
10.71	4.10321
10.72	4.10584
10.73	4.10452
10.74	4.09301
10.75	4.09104
10.76	4.08808
10.77	4.07985
10.78	4.08018
10.79	4.07788
10.8	4.08577
10.81	4.08084
10.82	4.08183
10.83	4.09729
10.84	4.08808
10.85	4.07294
10.86	4.06932
10.87	4.0759
10.88	4.07788
10.89	4.069
10.9	4.07064
10.91	4.09794
10.92	4.09762
10.93	4.09038
10.94	4.08117
10.95	4.07623
10.96	4.08084
10.97	4.06011
10.98	4.06998
10.99	4.07689
11	4.06702
11.01	4.07821
11.02	4.07294
11.03	4.07952
11.04	4.06636
11.05	4.08808
11.06	4.07163
11.07	4.07261
11.08	4.06439
11.09	4.06011
11.1	4.06011
11.11	4.08248
11.12	4.0588
11.13	4.0713
11.14	4.07196
11.15	4.05255
11.16	4.05518
11.17	4.05781
11.18	4.05617
11.19	4.06538
11.2	4.05288
11.21	4.05847
11.22	4.05748
11.23	4.05551
11.24	4.06834
11.25	4.06604
11.26	4.06867
11.27	4.05255
11.28	4.0565
11.29	4.06505
11.3	4.05682
11.31	4.06011
11.32	4.04827
11.33	4.06636
11.34	4.05419
11.35	4.04663
11.36	4.06209
11.37	4.04334
11.38	4.05057
11.39	4.04926
11.4	4.05913
11.41	4.03906
11.42	4.04334
11.43	4.05222
11.44	4.05682
11.45	4.06373
11.46	4.05288
11.47	4.03511
11.48	4.03643
11.49	4.04202
11.5	4.05946
11.51	4.04103
11.52	4.03149
11.53	4.04498
11.54	4.02886
11.55	4.04465
11.56	4.04169
11.57	4.02985
11.58	4.03906
11.59	4.04498
11.6	4.03544
11.61	4.02755
11.62	4.03215
11.63	4.02886
11.64	4.03709
11.65	4.02985
11.66	4.02623
11.67	4.04235
11.68	4.0361
11.69	4.02919
11.7	4.02656
11.71	4.05189
11.72	4.04959
11.73	4.02064
11.74	4.03511
11.75	4.02327
11.76	4.03873
11.77	4.01965
11.78	4.01636
11.79	4.0361
11.8	4.02788
11.81	4.02261
11.82	4.01834
11.83	4.02886
11.84	4.03676
11.85	4.01932
11.86	4.02097
11.87	4.02821
11.88	4.01439
11.89	4.00518
11.9	4.01702
11.91	4.00814
11.92	4.01834
11.93	4.02492
11.94	4.00584
11.95	4.02886
11.96	4.00255
11.97	4.0088
11.98	4.01669
11.99	4.00551
12	4.01834
12.01	4.02294
12.02	4.02821
12.03	4.04071
12.04	3.99827
12.05	4.03084
12.06	4.0134
12.07	3.9884
12.08	3.99103
12.09	4.01603
12.1	4.01636
12.11	4.00419
12.12	4.00386
12.13	4.00156
12.14	4.01735
12.15	4.01505
12.16	4.01603
12.17	3.99399
12.18	4.02064
12.19	4.01834
12.2	4.01669
12.21	4.00452
12.22	4.00584
12.23	4.00485
12.24	4.00057
12.25	3.99959
12.26	3.99235
12.27	3.98149
12.28	3.99827
12.29	4.01899
12.3	3.98939
12.31	3.98314
12.32	4.00452
12.33	4.0032
12.34	3.99991
12.35	3.97952
12.36	3.98511
12.37	3.99202
12.38	4.00288
12.39	4.00353
12.4	3.99827
12.41	3.99498
12.42	3.99235
12.43	3.97557
12.44	4.00978
12.45	3.99169
12.46	3.97919
12.47	3.98511
12.48	3.98741
12.49	4.00386
12.5	3.98643
12.51	4.00353
12.52	4.01538
12.53	3.99334
12.54	3.97689
12.55	3.99005
12.56	3.99893
12.57	4.00024
12.58	3.99926
12.59	4.00156
12.6	3.98314
12.61	3.99695
12.62	3.97294
12.63	3.98347
12.64	4.00913
12.65	3.98281
12.66	3.98939
12.67	3.99038
12.68	3.98182
12.69	3.98774
12.7	3.98676
12.71	3.98347
12.72	3.96866
12.73	3.97491
12.74	3.95978
12.75	3.97656
12.76	3.97919
12.77	3.98051
12.78	3.98248
12.79	3.97557
12.8	3.97426
12.81	3.97064
12.82	3.9611
12.83	3.96833
12.84	3.95748
12.85	3.98412
12.86	3.98182
12.87	3.97787
12.88	3.97755
12.89	3.97228
12.9	3.96669
12.91	3.96603
12.92	3.97853
12.93	3.97886
12.94	3.97459
12.95	3.98018
12.96	3.96505
12.97	3.96373
12.98	3.97195
12.99	3.97623
13	3.98116
13.01	3.96636
13.02	3.9782
13.03	3.97031
13.04	3.98412
13.05	3.96011
13.06	3.9634
13.07	3.96537
13.08	3.9657
13.09	3.97524
13.1	3.95814
13.11	3.97853
13.12	3.96537
13.13	3.95978
13.14	3.95715
13.15	3.96505
13.16	3.98116
13.17	3.96208
13.18	3.95847
13.19	3.95912
13.2	3.95847
13.21	3.96077
13.22	3.95978
13.23	3.96439
13.24	3.96077
13.25	3.97031
13.26	3.9657
13.27	3.95748
13.28	3.94728
13.29	3.97294
13.3	3.9588
13.31	3.96176
13.32	3.97327
13.33	3.9611
13.34	3.96406
13.35	3.94926
13.36	3.96406
13.37	3.95814
13.38	3.9611
13.39	3.94235
13.4	3.94498
13.41	3.9486
13.42	3.95814
13.43	3.9407
13.44	3.94235
13.45	3.92722
13.46	3.9486
13.47	3.95583
13.48	3.93873
13.49	3.94333
13.5	3.95386
13.51	3.94037
13.52	3.96208
13.53	3.95485
13.54	3.96044
13.55	3.93906
13.56	3.94366
13.57	3.93544
13.58	3.94926
13.59	3.95912
13.6	3.92754
13.61	3.92886
13.62	3.93643
13.63	3.93412
13.64	3.94301
13.65	3.93675
13.66	3.93314
13.67	3.95748
13.68	3.94333
13.69	3.93544
13.7	3.94169
13.71	3.94333
13.72	3.92458
13.73	3.92754
13.74	3.9407
13.75	3.9407
13.76	3.9259
13.77	3.93281
13.78	3.95222
13.79	3.94958
13.8	3.94333
13.81	3.93577
13.82	3.93774
13.83	3.93577
13.84	3.94958
13.85	3.92919
13.86	3.93675
13.87	3.92886
13.88	3.93248
13.89	3.94268
13.9	3.93445
13.91	3.9236
13.92	3.91866
13.93	3.93741
13.94	3.93116
13.95	3.93972
13.96	3.9486
13.97	3.92853
13.98	3.93379
13.99	3.92393
14	3.9282
14.01	3.94235
14.02	3.9305
14.03	3.91768
14.04	3.93314
14.05	3.94695
14.06	3.94103
14.07	3.93149
14.08	3.92393
14.09	3.93807
14.1	3.92491
14.11	3.93972
14.12	3.92458
14.13	3.93083
14.14	3.91603
14.15	3.9282
14.16	3.93478
14.17	3.92656
14.18	3.92656
14.19	3.89958
14.2	3.92524
14.21	3.92393
14.22	3.93478
14.23	3.91636
14.24	3.92656
14.25	3.93708
14.26	3.93972
14.27	3.9361
14.28	3.93774
14.29	3.9361
14.3	3.94235
14.31	3.92919
14.32	3.92491
14.33	3.92557
14.34	3.90781
14.35	3.90452
14.36	3.91471
14.37	3.91965
14.38	3.91932
14.39	3.93511
14.4	3.93972
14.41	3.92754
14.42	3.92919
14.43	3.93412
14.44	3.92689
14.45	3.91175
14.46	3.9236
14.47	3.91669
14.48	3.91241
14.49	3.91899
14.5	3.9134
14.51	3.91636
14.52	3.91768
14.53	3.89564
14.54	3.89498
14.55	3.91274
14.56	3.91669
14.57	3.91735
14.58	3.91406
14.59	3.90452
14.6	3.9157
14.61	3.9157
14.62	3.90156
14.63	3.90846
14.64	3.92228
14.65	3.9236
14.66	3.91175
14.67	3.90254
14.68	3.9055
14.69	3.91307
14.7	3.89267
14.71	3.90189
14.72	3.90353
14.73	3.92458
14.74	3.90945
14.75	3.91373
14.76	3.9032
14.77	3.91998
14.78	3.90912
14.79	3.91471
14.8	3.89925
14.81	3.89827
14.82	3.91044
14.83	3.91274
14.84	3.91143
14.85	3.9134
14.86	3.90912
14.87	3.9236
14.88	3.9032
14.89	3.89695
14.9	3.91504
14.91	3.8986
14.92	3.88807
14.93	3.89794
14.94	3.91866
14.95	3.91603
14.96	3.91439
14.97	3.91274
14.98	3.9134
14.99	3.90386
15	3.89827
15.01	3.90254
15.02	3.91833
15.03	3.92261
15.04	3.918
15.05	3.90452
15.06	3.90189
15.07	3.9055
15.08	3.90353
15.09	3.89564
15.1	3.92064
15.11	3.90419
15.12	3.90781
15.13	3.9111
15.14	3.92623
15.15	3.91504
15.16	3.91866
15.17	3.90715
15.18	3.88938
15.19	3.90386
15.2	3.9009
15.21	3.9111
15.22	3.92393
15.23	3.90814
15.24	3.89531
15.25	3.90978
15.26	3.91439
15.27	3.89892
15.28	3.90189
15.29	3.89103
15.3	3.89202
15.31	3.89991
15.32	3.89202
15.33	3.91833
15.34	3.89498
15.35	3.88149
15.36	3.89103
15.37	3.89103
15.38	3.91998
15.39	3.92919
15.4	3.90024
15.41	3.88741
15.42	3.893
15.43	3.88708
15.44	3.89267
15.45	3.89662
15.46	3.88741
15.47	3.88248
15.48	3.89037
15.49	3.88873
15.5	3.89235
15.51	3.88182
15.52	3.8759
15.53	3.88544
15.54	3.88971
15.55	3.89366
15.56	3.87392
15.57	3.89498
15.58	3.88412
15.59	3.88675
15.6	3.89235
15.61	3.89202
15.62	3.88971
15.63	3.88708
15.64	3.89629
15.65	3.89761
15.66	3.89958
15.67	3.88182
15.68	3.89761
15.69	3.89695
15.7	3.87886
15.71	3.88281
15.72	3.88116
15.73	3.88577
15.74	3.89465
15.75	3.90189
15.76	3.87688
15.77	3.89925
15.78	3.88873
15.79	3.8805
15.8	3.89432
15.81	3.89004
15.82	3.88379
15.83	3.89333
15.84	3.87787
15.85	3.87392
15.86	3.88379
15.87	3.89169
15.88	3.87623
15.89	3.88248
15.9	3.89169
15.91	3.89235
15.92	3.88906
15.93	3.88412
15.94	3.8907
15.95	3.87985
15.96	3.89037
15.97	3.88675
15.98	3.85353
15.99	3.87162
16	3.85649
16.01	3.87129
16.02	3.8884
16.03	3.88182
16.04	3.87853
16.05	3.88511
16.06	3.89564
16.07	3.88478
16.08	3.87688
16.09	3.87031
16.1	3.86932
16.11	3.88182
16.12	3.86833
16.13	3.87491
16.14	3.88774
16.15	3.87524
16.16	3.87458
16.17	3.87096
16.18	3.87787
16.19	3.89235
16.2	3.89465
16.21	3.88281
16.22	3.86899
16.23	3.88313
16.24	3.88248
16.25	3.87952
16.26	3.86932
16.27	3.87425
16.28	3.88741
16.29	3.88313
16.3	3.88412
16.31	3.88938
16.32	3.85682
16.33	3.86734
16.34	3.86603
16.35	3.87491
16.36	3.88445
16.37	3.86965
16.38	3.85682
16.39	3.88642
16.4	3.89037
16.41	3.86044
16.42	3.87261
16.43	3.86241
16.44	3.87754
16.45	3.87623
16.46	3.86998
16.47	3.86899
16.48	3.87294
16.49	3.86274
16.5	3.86109
16.51	3.86603
16.52	3.88346
16.53	3.86274
16.54	3.87524
16.55	3.86406
16.56	3.86077
16.57	3.868
16.58	3.87096
16.59	3.86241
16.6	3.86241
16.61	3.868
16.62	3.87787
16.63	3.87557
16.64	3.86274
16.65	3.87392
16.66	3.87754
16.67	3.86998
16.68	3.87031
16.69	3.8805
16.7	3.87261
16.71	3.86767
16.72	3.8861
16.73	3.88675
16.74	3.87162
16.75	3.86734
16.76	3.87063
16.77	3.87557
16.78	3.87952
16.79	3.8578
16.8	3.86438
16.81	3.87096
16.82	3.88642
16.83	3.86438
16.84	3.85748
16.85	3.86241
16.86	3.86998
16.87	3.87096
16.88	3.86603
16.89	3.86734
16.9	3.86077
16.91	3.85945
16.92	3.86603
16.93	3.84596
16.94	3.87327
16.95	3.87425
16.96	3.87129
16.97	3.86077
16.98	3.88741
16.99	3.88182
17	3.86044
17.01	3.87392
17.02	3.86241
17.03	3.85945
17.04	3.87261
17.05	3.87327
17.06	3.86471
17.07	3.84859
17.08	3.84892
17.09	3.85287
17.1	3.85188
17.11	3.84794
17.12	3.85123
17.13	3.85912
17.14	3.86438
17.15	3.84728
17.16	3.86208
17.17	3.86998
17.18	3.86603
17.19	3.88017
17.2	3.87458
17.21	3.85879
17.22	3.86504
17.23	3.86998
17.24	3.86142
17.25	3.85419
17.26	3.86669
17.27	3.84958
17.28	3.85419
17.29	3.86471
17.3	3.85813
17.31	3.85813
17.32	3.84794
17.33	3.8634
17.34	3.8657
17.35	3.84991
17.36	3.84333
17.37	3.8532
17.38	3.84794
17.39	3.86044
17.4	3.85057
17.41	3.83675
17.42	3.85155
17.43	3.85287
17.44	3.84103
17.45	3.84662
17.46	3.84169
17.47	3.86307
17.48	3.85221
17.49	3.85188
17.5	3.84267
17.51	3.86767
17.52	3.85419
17.53	3.85386
17.54	3.85649
17.55	3.84892
17.56	3.86307
17.57	3.83873
17.58	3.84136
17.59	3.86274
17.6	3.85024
17.61	3.87557
17.62	3.84728
17.63	3.85748
17.64	3.84136
17.65	3.85419
17.66	3.86142
17.67	3.86241
17.68	3.83675
17.69	3.84827
17.7	3.84366
17.71	3.84662
17.72	3.85287
17.73	3.85583
17.74	3.84925
17.75	3.84432
17.76	3.85616
17.77	3.84728
17.78	3.86767
17.79	3.86603
17.8	3.85221
17.81	3.84201
17.82	3.85682
17.83	3.85945
17.84	3.8555
17.85	3.86965
17.86	3.86899
17.87	3.84695
17.88	3.85682
17.89	3.86932
17.9	3.85386
17.91	3.83346
17.92	3.85846
17.93	3.84925
17.94	3.85517
17.95	3.85748
17.96	3.85155
17.97	3.85419
17.98	3.8759
17.99	3.86373
18	3.86142
18.01	3.85353
18.02	3.85057
18.03	3.85123
18.04	3.84563
18.05	3.85188
18.06	3.84267
18.07	3.85517
18.08	3.84169
18.09	3.84103
18.1	3.86734
18.11	3.8532
18.12	3.84498
18.13	3.84859
18.14	3.85484
18.15	3.86866
18.16	3.82294
18.17	3.84892
18.18	3.85188
18.19	3.83741
18.2	3.83741
18.21	3.8407
18.22	3.84366
18.23	3.85024
18.24	3.84859
18.25	3.85155
18.26	3.84103
18.27	3.82721
18.28	3.83708
18.29	3.84498
18.3	3.84004
18.31	3.83905
18.32	3.84629
18.33	3.8453
18.34	3.8328
18.35	3.84399
18.36	3.85188
18.37	3.83741
18.38	3.83609
18.39	3.83215
18.4	3.83938
18.41	3.84761
18.42	3.86208
18.43	3.82754
18.44	3.82853
18.45	3.83609
18.46	3.83017
18.47	3.84366
18.48	3.84695
18.49	3.85452
18.5	3.84498
18.51	3.83149
18.52	3.84267
18.53	3.84103
18.54	3.84958
18.55	3.84136
18.56	3.84333
18.57	3.84991
18.58	3.83642
18.59	3.83182
18.6	3.85221
18.61	3.82557
18.62	3.84761
18.63	3.84333
18.64	3.83708
18.65	3.83642
18.66	3.83017
18.67	3.84399
18.68	3.83083
18.69	3.83248
18.7	3.83346
18.71	3.84827
18.72	3.8532
18.73	3.8407
18.74	3.83083
18.75	3.83313
18.76	3.83182
18.77	3.80583
18.78	3.82392
18.79	3.82787
18.8	3.83938
18.81	3.83774
18.82	3.84695
18.83	3.84958
18.84	3.84366
18.85	3.84004
18.86	3.83478
18.87	3.83544
18.88	3.83609
18.89	3.82491
18.9	3.83313
18.91	3.83642
18.92	3.84267
18.93	3.84333
18.94	3.83445
18.95	3.82655
18.96	3.84169
18.97	3.84136
18.98	3.83708
18.99	3.84399
19	3.84991
19.01	3.85057
19.02	3.843
19.03	3.83149
19.04	3.83445
19.05	3.8407
19.06	3.83642
19.07	3.83774
19.08	3.84169
19.09	3.83873
19.1	3.84794
19.11	3.84267
19.12	3.84958
19.13	3.84267
19.14	3.84366
19.15	3.8305
19.16	3.84004
19.17	3.82392
19.18	3.8305
19.19	3.83642
19.2	3.83215
19.21	3.84695
19.22	3.8259
19.23	3.83215
19.24	3.84695
19.25	3.83873
19.26	3.81997
19.27	3.81866
19.28	3.83346
19.29	3.85682
19.3	3.8407
19.31	3.8384
19.32	3.8384
19.33	3.82919
19.34	3.8305
19.35	3.82129
19.36	3.83576
19.37	3.85287
19.38	3.83182
19.39	3.82162
19.4	3.83412
19.41	3.8407
19.42	3.82261
19.43	3.83478
19.44	3.84136
19.45	3.83642
19.46	3.82886
19.47	3.83149
19.48	3.83807
19.49	3.82458
19.5	3.82754
19.51	3.843
19.52	3.83675
19.53	3.84037
19.54	3.84991
19.55	3.84859
19.56	3.85715
19.57	3.85024
19.58	3.83774
19.59	3.82458
19.6	3.83741
19.61	3.83938
19.62	3.83116
19.63	3.8203
19.64	3.8407
19.65	3.83182
19.66	3.84201
19.67	3.82261
19.68	3.82524
19.69	3.83675
19.7	3.82655
19.71	3.84103
19.72	3.84399
19.73	3.83379
19.74	3.84366
19.75	3.82853
19.76	3.83873
19.77	3.83774
19.78	3.83609
19.79	3.82458
19.8	3.83511
19.81	3.83478
19.82	3.81767
19.83	3.8203
19.84	3.81669
19.85	3.81866
19.86	3.82951
19.87	3.83675
19.88	3.82524
19.89	3.82984
19.9	3.83313
19.91	3.83478
19.92	3.82392
19.93	3.83544
19.94	3.8328
19.95	3.83083
19.96	3.82886
19.97	3.81504
19.98	3.82195
19.99	3.82392
20	3.82623
20.01	3.82458
20.02	3.83248
20.03	3.84991
20.04	3.8453
20.05	3.82754
20.06	3.83083
20.07	3.83083
20.08	3.83741
20.09	3.82261
20.1	3.83576
20.11	3.81669
20.12	3.81208
20.13	3.83346
20.14	3.83675
20.15	3.81833
20.16	3.83807
20.17	3.8282
20.18	3.81669
20.19	3.82228
20.2	3.84037
20.21	3.8282
20.22	3.82228
20.23	3.80418
20.24	3.8203
20.25	3.82261
20.26	3.82491
20.27	3.82491
20.28	3.83708
20.29	3.83346
20.3	3.83412
20.31	3.83576
20.32	3.81307
20.33	3.81471
20.34	3.81833
20.35	3.82228
20.36	3.83149
20.37	3.82919
20.38	3.82294
20.39	3.81044
20.4	3.82557
20.41	3.8259
20.42	3.82063
20.43	3.818
20.44	3.82129
20.45	3.83445
20.46	3.83445
20.47	3.82853
20.48	3.81603
20.49	3.81636
20.5	3.81965
20.51	3.82425
20.52	3.82162
20.53	3.83215
20.54	3.82458
20.55	3.82326
20.56	3.82326
20.57	3.82688
20.58	3.82261
20.59	3.83017
20.6	3.80616
20.61	3.81767
20.62	3.81669
20.63	3.81636
20.64	3.81636
20.65	3.81603
20.66	3.81208
20.67	3.80649
20.68	3.82195
20.69	3.80451
20.7	3.81307
20.71	3.81307
20.72	3.82458
20.73	3.81471
20.74	3.83379
20.75	3.82392
20.76	3.82754
20.77	3.82655
20.78	3.82688
20.79	3.80451
20.8	3.81965
20.81	3.82688
20.82	3.82688
20.83	3.81965
20.84	3.80813
20.85	3.81307
20.86	3.81438
20.87	3.81932
20.88	3.8203
20.89	3.80517
20.9	3.80945
20.91	3.81965
20.92	3.80122
20.93	3.82326
20.94	3.82063
20.95	3.81076
20.96	3.80649
20.97	3.818
20.98	3.8055
20.99	3.8259
21	3.81307
21.01	3.80583
21.02	3.82326
21.03	3.81965
21.04	3.81076
21.05	3.82228
21.06	3.82721
21.07	3.80945
21.08	3.81011
21.09	3.81866
21.1	3.81044
21.11	3.83576
21.12	3.82096
21.13	3.82688
21.14	3.8055
21.15	3.82754
21.16	3.81833
21.17	3.80451
21.18	3.82228
21.19	3.8305
21.2	3.82359
21.21	3.818
21.22	3.80715
21.23	3.80846
21.24	3.82557
21.25	3.82721
21.26	3.81372
21.27	3.81636
21.28	3.82623
21.29	3.82655
21.3	3.81076
21.31	3.8078
21.32	3.81175
21.33	3.81899
21.34	3.81899
21.35	3.82294
21.36	3.8078
21.37	3.81405
21.38	3.81537
21.39	3.78346
21.4	3.8032
21.41	3.80978
21.42	3.78642
21.43	3.8055
21.44	3.81504
21.45	3.81997
21.46	3.81076
21.47	3.83313
21.48	3.82721
21.49	3.79892
21.5	3.82063
21.51	3.8259
21.52	3.81044
21.53	3.80945
21.54	3.82458
21.55	3.81405
21.56	3.80813
21.57	3.81011
21.58	3.81701
21.59	3.79168
21.6	3.79103
21.61	3.81011
21.62	3.8009
21.63	3.81866
21.64	3.81109
21.65	3.80616
21.66	3.81767
21.67	3.82524
21.68	3.81866
21.69	3.82294
21.7	3.80122
21.71	3.80057
21.72	3.80813
21.73	3.81833
21.74	3.82524
21.75	3.81405
21.76	3.81044
21.77	3.81471
21.78	3.81241
21.79	3.81142
21.8	3.82655
21.81	3.82228
21.82	3.81011
21.83	3.81307
21.84	3.81636
21.85	3.81833
21.86	3.80484
21.87	3.81405
21.88	3.80879
21.89	3.80616
21.9	3.79234
21.91	3.81175
21.92	3.81405
21.93	3.81307
21.94	3.81669
21.95	3.81405
21.96	3.8203
21.97	3.81307
21.98	3.80846
21.99	3.80945
22	3.82063
22.01	3.81603
22.02	3.80846
22.03	3.80715
22.04	3.818
22.05	3.81636
22.06	3.82688
22.07	3.81701
22.08	3.81011
22.09	3.82458
22.1	3.81504
22.11	3.81307
22.12	3.80155
22.13	3.81175
22.14	3.81636
22.15	3.80813
22.16	3.80221
22.17	3.80682
22.18	3.79793
22.19	3.80353
22.2	3.81011
22.21	3.7907
22.22	3.79826
22.23	3.81274
22.24	3.80616
22.25	3.79826
22.26	3.80024
22.27	3.81932
22.28	3.81438
22.29	3.8157
22.3	3.81504
22.31	3.80122
22.32	3.80024
22.33	3.78774
22.34	3.77754
22.35	3.80484
22.36	3.79662
22.37	3.80813
22.38	3.81372
22.39	3.78905
22.4	3.79333
22.41	3.80715
22.42	3.81504
22.43	3.7953
22.44	3.78576
22.45	3.81044
22.46	3.79136
22.47	3.79662
22.48	3.80188
22.49	3.80221
22.5	3.80715
22.51	3.81076
22.52	3.80155
22.53	3.80254
22.54	3.80353
22.55	3.80813
22.56	3.82063
22.57	3.81241
22.58	3.793
22.59	3.79662
22.6	3.81734
22.61	3.81142
22.62	3.80024
22.63	3.7907
22.64	3.79168
22.65	3.80155
22.66	3.79596
22.67	3.80715
22.68	3.80978
22.69	3.80583
22.7	3.78379
22.71	3.79366
22.72	3.79991
22.73	3.79629
22.74	3.80813
22.75	3.80682
22.76	3.7953
22.77	3.7953
22.78	3.80945
22.79	3.80978
22.8	3.81109
22.81	3.80451
22.82	3.79662
22.83	3.8055
22.84	3.80386
22.85	3.79629
22.86	3.80649
22.87	3.81011
22.88	3.80386
22.89	3.78642
22.9	3.79925
22.91	3.8157
22.92	3.78905
22.93	3.80122
22.94	3.79859
22.95	3.79859
22.96	3.80188
22.97	3.8055
22.98	3.79925
22.99	3.8055
23	3.80649
23.01	3.80057
23.02	3.79662
23.03	3.81044
23.04	3.80978
23.05	3.78642
23.06	3.80353
23.07	3.79695
23.08	3.80353
23.09	3.79136
23.1	3.80386
23.11	3.79991
23.12	3.79826
23.13	3.79662
23.14	3.79497
23.15	3.80517
23.16	3.78774
23.17	3.80122
23.18	3.79859
23.19	3.8032
23.2	3.80155
23.21	3.80747
23.22	3.81504
23.23	3.8009
23.24	3.78445
23.25	3.79366
23.26	3.81208
23.27	3.8032
23.28	3.8134
23.29	3.79826
23.3	3.80451
23.31	3.80649
23.32	3.80353
23.33	3.81866
23.34	3.80451
23.35	3.79826
23.36	3.80879
23.37	3.78905
23.38	3.79497
23.39	3.79892
23.4	3.8055
23.41	3.8009
23.42	3.79629
23.43	3.7907
23.44	3.80287
23.45	3.81932
23.46	3.81471
23.47	3.80484
23.48	3.79728
23.49	3.80254
23.5	3.79826
23.51	3.79103
23.52	3.78905
23.53	3.78478
23.54	3.7828
23.55	3.79892
23.56	3.79596
23.57	3.79958
23.58	3.79629
23.59	3.80287
23.6	3.8078
23.61	3.78445
23.62	3.77524
23.63	3.7805
23.64	3.78412
23.65	3.78741
23.66	3.80451
23.67	3.79563
23.68	3.8009
23.69	3.78905
23.7	3.79366
23.71	3.79366
23.72	3.79004
23.73	3.80912
23.74	3.80978
23.75	3.78741
23.76	3.7953
23.77	3.78905
23.78	3.7953
23.79	3.80517
23.8	3.793
23.81	3.79563
23.82	3.79859
23.83	3.79497
23.84	3.79596
23.85	3.78971
23.86	3.79103
23.87	3.79366
23.88	3.78741
23.89	3.78839
23.9	3.77754
23.91	3.7782
23.92	3.793
23.93	3.78313
23.94	3.79728
23.95	3.79925
23.96	3.79892
23.97	3.7953
23.98	3.79432
23.99	3.78774
24	3.77951
24.01	3.79497
24.02	3.78214
24.03	3.79004
24.04	3.79793
24.05	3.79103
24.06	3.78905
24.07	3.79497
24.08	3.79728
24.09	3.78478
24.1	3.79991
24.11	3.79563
24.12	3.79136
24.13	3.79168
24.14	3.77886
24.15	3.78675
24.16	3.80353
24.17	3.78708
24.18	3.79629
24.19	3.80353
24.2	3.79695
24.21	3.78478
24.22	3.78872
24.23	3.79596
24.24	3.79333
24.25	3.78083
24.26	3.78149
24.27	3.7782
24.28	3.78971
24.29	3.80287
24.3	3.79004
24.31	3.77918
24.32	3.7805
24.33	3.7703
24.34	3.79859
24.35	3.79432
24.36	3.79333
24.37	3.79728
24.38	3.79168
24.39	3.79793
24.4	3.80122
24.41	3.77425
24.42	3.78741
24.43	3.79958
24.44	3.76899
24.45	3.80484
24.46	3.80682
24.47	3.79596
24.48	3.79596
24.49	3.78576
24.5	3.78905
24.51	3.80616
24.52	3.81537
24.53	3.79465
24.54	3.78313
24.55	3.78247
24.56	3.78511
24.57	3.78839
24.58	3.79267
24.59	3.79761
24.6	3.78675
24.61	3.79333
24.62	3.79037
24.63	3.78675
24.64	3.78807
24.65	3.78313
24.66	3.79662
24.67	3.77721
24.68	3.7805
24.69	3.78839
24.7	3.79432
24.71	3.78116
24.72	3.78412
24.73	3.78543
24.74	3.77524
24.75	3.78675
24.76	3.78576
24.77	3.78938
24.78	3.77721
24.79	3.78379
24.8	3.78346
24.81	3.78609
24.82	3.77524
24.83	3.78083
24.84	3.78247
24.85	3.78807
24.86	3.78116
24.87	3.77359
24.88	3.79629
24.89	3.7907
24.9	3.79991
24.91	3.8009
24.92	3.78905
24.93	3.77458
24.94	3.79366
24.95	3.79563
24.96	3.77918
24.97	3.78412
24.98	3.77359
24.99	3.77162
25	3.78083
25.01	3.78642
25.02	3.78938
25.03	3.77425
25.04	3.77392
25.05	3.77524
25.06	3.78313
25.07	3.77721
25.08	3.78708
25.09	3.77918
25.1	3.77787
25.11	3.78214
25.12	3.79234
25.13	3.79168
25.14	3.77886
25.15	3.77293
25.16	3.78543
25.17	3.79793
25.18	3.78807
25.19	3.79925
25.2	3.79201
25.21	3.79333
25.22	3.78807
25.23	3.79136
25.24	3.78576
25.25	3.80188
25.26	3.78839
25.27	3.79366
25.28	3.7907
25.29	3.78905
25.3	3.7907
25.31	3.78807
25.32	3.78214
25.33	3.78017
25.34	3.7953
25.35	3.78905
25.36	3.79267
25.37	3.77984
25.38	3.78247
25.39	3.79761
25.4	3.78313
25.41	3.79761
25.42	3.78214
25.43	3.80287
25.44	3.78872
25.45	3.78708
25.46	3.8032
25.47	3.78905
25.48	3.78938
25.49	3.79596
25.5	3.78675
25.51	3.79596
25.52	3.7953
25.53	3.78642
25.54	3.78149
25.55	3.7805
25.56	3.77096
25.57	3.77129
25.58	3.77918
25.59	3.77228
25.6	3.79465
25.61	3.78182
25.62	3.76767
25.63	3.76833
25.64	3.79465
25.65	3.79958
25.66	3.79662
25.67	3.79267
25.68	3.77293
25.69	3.77425
25.7	3.78478
25.71	3.80155
25.72	3.77392
25.73	3.77096
25.74	3.78872
25.75	3.77787
25.76	3.79234
25.77	3.78642
25.78	3.7828
25.79	3.78576
25.8	3.77359
25.81	3.78642
25.82	3.8055
25.83	3.81307
25.84	3.80155
25.85	3.79366
25.86	3.78214
25.87	3.76964
25.88	3.79695
25.89	3.78478
25.9	3.77721
25.91	3.77129
25.92	3.77524
25.93	3.78741
25.94	3.77688
25.95	3.78017
25.96	3.80024
25.97	3.79037
25.98	3.78971
25.99	3.78478
26	3.793
26.01	3.80418
26.02	3.78445
26.03	3.77886
26.04	3.80287
26.05	3.80057
26.06	3.7828
26.07	3.79103
26.08	3.78247
26.09	3.77622
26.1	3.78971
26.11	3.77721
26.12	3.78346
26.13	3.78839
26.14	3.7907
26.15	3.78905
26.16	3.77918
26.17	3.78774
26.18	3.77162
26.19	3.78017
26.2	3.77787
26.21	3.76734
26.22	3.78412
26.23	3.78675
26.24	3.78807
26.25	3.7907
26.26	3.79662
26.27	3.78116
26.28	3.79859
26.29	3.77853
26.3	3.76899
26.31	3.78905
26.32	3.77886
26.33	3.77557
26.34	3.77918
26.35	3.78379
26.36	3.79859
26.37	3.77886
26.38	3.79004
26.39	3.77162
26.4	3.76471
26.41	3.7782
26.42	3.77853
26.43	3.77918
26.44	3.76997
26.45	3.78116
26.46	3.77787
26.47	3.78741
26.48	3.75649
26.49	3.77491
26.5	3.78511
26.51	3.76471
26.52	3.7726
26.53	3.77655
26.54	3.78379
26.55	3.77326
26.56	3.78149
26.57	3.77096
26.58	3.76964
26.59	3.78149
26.6	3.76635
26.61	3.76767
26.62	3.77754
26.63	3.78116
26.64	3.78346
26.65	3.77886
26.66	3.79432
26.67	3.79563
26.68	3.77359
26.69	3.793
26.7	3.79662
26.71	3.77853
26.72	3.77228
26.73	3.77853
26.74	3.78675
26.75	3.77293
26.76	3.76635
26.77	3.768
26.78	3.75583
26.79	3.76339
26.8	3.76175
26.81	3.77853
26.82	3.76899
26.83	3.76833
26.84	3.77359
26.85	3.78807
26.86	3.78708
26.87	3.78313
26.88	3.78379
26.89	3.78313
26.9	3.78214
26.91	3.78741
26.92	3.77754
26.93	3.78445
26.94	3.78609
26.95	3.79103
26.96	3.7828
26.97	3.79234
26.98	3.77195
26.99	3.7703
27	3.77293
27.01	3.77425
27.02	3.77721
27.03	3.7782
27.04	3.77524
27.05	3.78379
27.06	3.78543
27.07	3.77886
27.08	3.76405
27.09	3.78017
27.1	3.78346
27.11	3.77491
27.12	3.78116
27.13	3.78576
27.14	3.77951
27.15	3.77063
27.16	3.77688
27.17	3.7828
27.18	3.78543
27.19	3.77524
27.2	3.78116
27.21	3.76997
27.22	3.76438
27.23	3.79333
27.24	3.79103
27.25	3.76997
27.26	3.768
27.27	3.78214
27.28	3.7703
27.29	3.76734
27.3	3.77392
27.31	3.77622
27.32	3.78675
27.33	3.78609
27.34	3.77721
27.35	3.7726
27.36	3.77622
27.37	3.77622
27.38	3.78313
27.39	3.77886
27.4	3.76668
27.41	3.75912
27.42	3.76701
27.43	3.77063
27.44	3.77458
27.45	3.78017
27.46	3.76767
27.47	3.77754
27.48	3.77622
27.49	3.79892
27.5	3.78182
27.51	3.79333
27.52	3.77326
27.53	3.76438
27.54	3.76635
27.55	3.78938
27.56	3.77951
27.57	3.77228
27.58	3.77458
27.59	3.79037
27.6	3.7805
27.61	3.77622
27.62	3.78642
27.63	3.7726
27.64	3.77162
27.65	3.78576
27.66	3.78116
27.67	3.79497
27.68	3.77589
27.69	3.76537
27.7	3.7726
27.71	3.75681
27.72	3.78182
27.73	3.77622
27.74	3.77392
27.75	3.76734
27.76	3.76175
27.77	3.76241
27.78	3.76471
27.79	3.77326
27.8	3.76076
27.81	3.74925
27.82	3.76899
27.83	3.78214
27.84	3.77655
27.85	3.77195
27.86	3.78182
27.87	3.77622
27.88	3.77688
27.89	3.77063
27.9	3.77162
27.91	3.77622
27.92	3.76833
27.93	3.77787
27.94	3.77918
27.95	3.76767
27.96	3.75583
27.97	3.76339
27.98	3.78017
27.99	3.76701
28	3.76866
28.01	3.77589
28.02	3.75583
28.03	3.78675
28.04	3.77326
28.05	3.77293
28.06	3.7657
28.07	3.7555
28.08	3.76866
28.09	3.76339
28.1	3.76043
28.11	3.77524
28.12	3.79234
28.13	3.77195
28.14	3.77392
28.15	3.76997
28.16	3.76471
28.17	3.75747
28.18	3.77853
28.19	3.77787
28.2	3.76076
28.21	3.78938
28.22	3.77853
28.23	3.76043
28.24	3.77655
28.25	3.76899
28.26	3.77129
28.27	3.79662
28.28	3.78642
28.29	3.78839
28.3	3.78083
28.31	3.76438
28.32	3.7782
28.33	3.77359
28.34	3.77195
28.35	3.77129
28.36	3.77063
28.37	3.76603
28.38	3.77622
28.39	3.77162
28.4	3.77622
28.41	3.76142
28.42	3.77162
28.43	3.7782
28.44	3.77557
28.45	3.7828
28.46	3.76603
28.47	3.76767
28.48	3.76142
28.49	3.75879
28.5	3.76668
28.51	3.76833
28.52	3.76142
28.53	3.78445
28.54	3.7726
28.55	3.77392
28.56	3.7907
28.57	3.77589
28.58	3.76701
28.59	3.7828
28.6	3.76405
28.61	3.75846
28.62	3.77195
28.63	3.77951
28.64	3.76405
28.65	3.75747
28.66	3.76833
28.67	3.77886
28.68	3.76701
28.69	3.77622
28.7	3.7782
28.71	3.76603
28.72	3.77458
28.73	3.78017
28.74	3.78017
28.75	3.76899
28.76	3.77228
28.77	3.76701
28.78	3.77129
28.79	3.7782
28.8	3.75978
28.81	3.77853
28.82	3.77359
28.83	3.78675
28.84	3.76504
28.85	3.77293
28.86	3.78379
28.87	3.78412
28.88	3.79333
28.89	3.77524
28.9	3.76767
28.91	3.768
28.92	3.77096
28.93	3.76635
28.94	3.76899
28.95	3.76866
28.96	3.75089
28.97	3.77787
28.98	3.76307
28.99	3.77228
29	3.76405
29.01	3.77293
29.02	3.7657
29.03	3.76734
29.04	3.76438
29.05	3.78774
29.06	3.78741
29.07	3.79037
29.08	3.78149
29.09	3.77589
29.1	3.78247
29.11	3.76537
29.12	3.76208
29.13	3.77326
29.14	3.76734
29.15	3.76964
29.16	3.77096
29.17	3.75353
29.18	3.76142
29.19	3.7453
29.2	3.74991
29.21	3.77918
29.22	3.76537
29.23	3.76997
29.24	3.77359
29.25	3.76701
29.26	3.76076
29.27	3.77096
29.28	3.76734
29.29	3.77359
29.3	3.793
29.31	3.77293
29.32	3.77162
29.33	3.76603
29.34	3.78478
29.35	3.77918
29.36	3.77129
29.37	3.76109
29.38	3.74925
29.39	3.76405
29.4	3.77359
29.41	3.76701
29.42	3.77721
29.43	3.77589
29.44	3.76307
29.45	3.77918
29.46	3.76668
29.47	3.77787
29.48	3.77853
29.49	3.77195
29.5	3.76208
29.51	3.77326
29.52	3.75418
29.53	3.77326
29.54	3.78774
29.55	3.76866
29.56	3.75188
29.57	3.78839
29.58	3.7805
29.59	3.79037
29.6	3.77984
29.61	3.77425
29.62	3.7532
29.63	3.74201
29.64	3.74958
29.65	3.78708
29.66	3.77557
29.67	3.76471
29.68	3.76307
29.69	3.76603
29.7	3.75385
29.71	3.76668
29.72	3.7578
29.73	3.75714
29.74	3.75813
29.75	3.74399
29.76	3.75846
29.77	3.75912
29.78	3.73905
29.79	3.76734
29.8	3.76208
29.81	3.76438
29.82	3.78576
29.83	3.7703
29.84	3.77392
29.85	3.77129
29.86	3.77228
29.87	3.76175
29.88	3.7782
29.89	3.76471
29.9	3.768
29.91	3.76372
29.92	3.75714
29.93	3.75254
29.94	3.75188
29.95	3.77589
29.96	3.76537
29.97	3.77063
29.98	3.77359
29.99	3.77129
30	3.76307
