"BIO-KINE ASCII FILE"
"_COMMENT"	"MOS-500 Spectrometer"
"_COMMENT"	"Kinetics measurement"
"_COMMENT"	"Y Unit : Volt,  X Unit : s"
"_COMMENT"	"Excitation wavelength : 380 nm"
"_COMMENT"	"Fentes bandwidth =  1 nm"
"_COMMENT"	"HV= 800V"
"_COMMENT"	"Timebase  1 =  .01 s   3001 pts"
"_SFM"	"SFM-400 /S  Advanced mode"
"_SFM"	"Ratio : S1: 2.5, S2: 0, S3: 0, S4: 1"
"_SFM"	"Content : S1: , S2: , S3: , S4:"
"_SFM"	"Concentration : S1: , S2: , S3: , S4:"
"_SFM"	"Total volume : 209 µl  Flow : 3.5 mL/s"
"_SFM"	"Acquisition start :  10 ms before stop"
"_SFM"	"cuve=FC-15, s1=10 ml , s2=10 ml , s3=10 ml , s4=1.9 ml"
"_UNITX"	"s"
"_UNITY"	"Volt"
"_DELTAX"	0
"_DATA"
1e-300	5.9628
0.01	6.39045
0.02	6.72829
0.03	6.75888
0.04	6.73552
0.05	6.75065
0.06	6.75131
0.07	6.76875
0.08	6.74868
0.09	6.75033
0.1	6.75033
0.11	6.75296
0.12	6.74901
0.13	6.7671
0.14	6.7671
0.15	6.74934
0.16	6.74408
0.17	6.73947
0.18	6.78256
0.19	6.75723
0.2	6.7375
0.21	6.76842
0.22	6.73519
0.23	6.73421
0.24	6.73092
0.25	6.72105
0.26	6.72138
0.27	6.69967
0.28	6.73289
0.29	6.75493
0.3	6.72434
0.31	6.72335
0.32	6.70592
0.33	6.6921
0.34	6.68618
0.35	6.71579
0.36	6.7023
0.37	6.71118
0.38	6.69473
0.39	6.69802
0.4	6.70625
0.41	6.70296
0.42	6.68421
0.43	6.68552
0.44	6.67269
0.45	6.6592
0.46	6.65559
0.47	6.65986
0.48	6.64276
0.49	6.66348
0.5	6.67861
0.51	6.6444
0.52	6.65427
0.53	6.64736
0.54	6.64572
0.55	6.64243
0.56	6.63716
0.57	6.62927
0.58	6.61414
0.59	6.63091
0.6	6.62368
0.61	6.6217
0.62	6.60624
0.63	6.59341
0.64	6.60328
0.65	6.59506
0.66	6.60789
0.67	6.57368
0.68	6.5592
0.69	6.56447
0.7	6.56775
0.71	6.56973
0.72	6.57236
0.73	6.55262
0.74	6.5467
0.75	6.55624
0.76	6.5615
0.77	6.54045
0.78	6.53881
0.79	6.55065
0.8	6.52894
0.81	6.5194
0.82	6.52565
0.83	6.50394
0.84	6.5046
0.85	6.51413
0.86	6.49111
0.87	6.49933
0.88	6.50624
0.89	6.48617
0.9	6.48782
0.91	6.49045
0.92	6.49275
0.93	6.48913
0.94	6.50887
0.95	6.47532
0.96	6.47203
0.97	6.4694
0.98	6.46282
0.99	6.46084
1	6.4592
1.01	6.44242
1.02	6.42795
1.03	6.44209
1.04	6.41545
1.05	6.42334
1.06	6.44111
1.07	6.44012
1.08	6.40393
1.09	6.40196
1.1	6.4069
1.11	6.39341
1.12	6.38551
1.13	6.3865
1.14	6.39045
1.15	6.39209
1.16	6.37334
1.17	6.39308
1.18	6.37959
1.19	6.37532
1.2	6.35163
1.21	6.37334
1.22	6.35163
1.23	6.35656
1.24	6.33025
1.25	6.31248
1.26	6.33025
1.27	6.33189
1.28	6.3411
1.29	6.32005
1.3	6.32926
1.31	6.33913
1.32	6.32367
1.33	6.29735
1.34	6.30985
1.35	6.30327
1.36	6.29439
1.37	6.29176
1.38	6.30196
1.39	6.27959
1.4	6.27696
1.41	6.26018
1.42	6.26775
1.43	6.28321
1.44	6.26084
1.45	6.25294
1.46	6.25656
1.47	6.24472
1.48	6.25558
1.49	6.25854
1.5	6.25821
1.51	6.26479
1.52	6.22334
1.53	6.23321
1.54	6.22005
1.55	6.21018
1.56	6.20196
1.57	6.19439
1.58	6.1934
1.59	6.19899
1.6	6.20656
1.61	6.20228
1.62	6.16873
1.63	6.17498
1.64	6.1763
1.65	6.19011
1.66	6.19834
1.67	6.18551
1.68	6.14965
1.69	6.1434
1.7	6.14866
1.71	6.1457
1.72	6.1707
1.73	6.14801
1.74	6.11379
1.75	6.12432
1.76	6.14669
1.77	6.13978
1.78	6.1411
1.79	6.12761
1.8	6.12695
1.81	6.0911
1.82	6.10722
1.83	6.10623
1.84	6.10425
1.85	6.08452
1.86	6.09307
1.87	6.08715
1.88	6.07103
1.89	6.08847
1.9	6.07432
1.91	6.06149
1.92	6.05623
1.93	6.05031
1.94	6.05392
1.95	6.05656
1.96	6.0559
1.97	6.01938
1.98	6.04965
1.99	6.03419
2	6.0355
2.01	6.01412
2.02	6.02695
2.03	6.02234
2.04	6.01083
2.05	6.01215
2.06	6.01248
2.07	6.00359
2.08	5.99504
2.09	5.98945
2.1	5.96544
2.11	5.99373
2.12	5.97925
2.13	5.99175
2.14	5.97037
2.15	5.96149
2.16	5.94965
2.17	5.96774
2.18	5.9582
2.19	5.96182
2.2	5.95063
2.21	5.96544
2.22	5.95195
2.23	5.94997
2.24	5.94833
2.25	5.91905
2.26	5.9105
2.27	5.93287
2.28	5.91214
2.29	5.92168
2.3	5.9105
2.31	5.89537
2.32	5.88451
2.33	5.88484
2.34	5.90359
2.35	5.88122
2.36	5.88385
2.37	5.89142
2.38	5.86609
2.39	5.88287
2.4	5.85984
2.41	5.86247
2.42	5.85392
2.43	5.84372
2.44	5.85622
2.45	5.8605
2.46	5.84997
2.47	5.82365
2.48	5.83089
2.49	5.83681
2.5	5.84142
2.51	5.83254
2.52	5.84043
2.53	5.82727
2.54	5.80293
2.55	5.78747
2.56	5.81773
2.57	5.78517
2.58	5.79767
2.59	5.80655
2.6	5.77168
2.61	5.77826
2.62	5.77431
2.63	5.77957
2.64	5.77596
2.65	5.75984
2.66	5.7674
2.67	5.76378
2.68	5.7526
2.69	5.75128
2.7	5.76082
2.71	5.75819
2.72	5.73023
2.73	5.71247
2.74	5.72464
2.75	5.73582
2.76	5.71082
2.77	5.71214
2.78	5.71214
2.79	5.70984
2.8	5.72267
2.81	5.70885
2.82	5.7026
2.83	5.68681
2.84	5.6947
2.85	5.69306
2.86	5.68615
2.87	5.66411
2.88	5.6572
2.89	5.6697
2.9	5.6776
2.91	5.6776
2.92	5.68286
2.93	5.65161
2.94	5.65983
2.95	5.66608
2.96	5.64931
2.97	5.64668
2.98	5.65457
2.99	5.62891
3	5.61641
3.01	5.6151
3.02	5.62266
3.03	5.60917
3.04	5.62003
3.05	5.63154
3.06	5.62694
3.07	5.60523
3.08	5.59799
3.09	5.60227
3.1	5.61345
3.11	5.58483
3.12	5.57562
3.13	5.58023
3.14	5.59404
3.15	5.57167
3.16	5.58286
3.17	5.57299
3.18	5.57529
3.19	5.57792
3.2	5.56016
3.21	5.54996
3.22	5.53516
3.23	5.53023
3.24	5.52529
3.25	5.53483
3.26	5.53055
3.27	5.53483
3.28	5.51838
3.29	5.53582
3.3	5.52233
3.31	5.5118
3.32	5.50917
3.33	5.51378
3.34	5.50983
3.35	5.50983
3.36	5.49536
3.37	5.50095
3.38	5.50424
3.39	5.49503
3.4	5.47595
3.41	5.48812
3.42	5.48286
3.43	5.47332
3.44	5.47233
3.45	5.46476
3.46	5.47233
3.47	5.45818
3.48	5.47726
3.49	5.43976
3.5	5.44535
3.51	5.43845
3.52	5.43549
3.53	5.42792
3.54	5.42167
3.55	5.42233
3.56	5.42101
3.57	5.41377
3.58	5.4243
3.59	5.4266
3.6	5.44239
3.61	5.41114
3.62	5.40292
3.63	5.40325
3.64	5.39535
3.65	5.40259
3.66	5.4141
3.67	5.3891
3.68	5.40226
3.69	5.39766
3.7	5.38713
3.71	5.36213
3.72	5.38022
3.73	5.36114
3.74	5.37134
3.75	5.37759
3.76	5.36608
3.77	5.372
3.78	5.36147
3.79	5.34305
3.8	5.32561
3.81	5.34371
3.82	5.3618
3.83	5.35259
3.84	5.32496
3.85	5.3164
3.86	5.30621
3.87	5.31476
3.88	5.32463
3.89	5.32298
3.9	5.32002
3.91	5.29798
3.92	5.30357
3.93	5.31147
3.94	5.31246
3.95	5.28088
3.96	5.29272
3.97	5.28976
3.98	5.2743
3.99	5.28449
4	5.27792
4.01	5.2789
4.02	5.27463
4.03	5.28088
4.04	5.27364
4.05	5.2664
4.06	5.2562
4.07	5.25291
4.08	5.26147
4.09	5.23943
4.1	5.26278
4.11	5.23285
4.12	5.23614
4.13	5.25587
4.14	5.23647
4.15	5.21541
4.16	5.2312
4.17	5.22429
4.18	5.20522
4.19	5.21574
4.2	5.22166
4.21	5.19962
4.22	5.20949
4.23	5.21278
4.24	5.20225
4.25	5.18614
4.26	5.1937
4.27	5.20258
4.28	5.19929
4.29	5.18153
4.3	5.17923
4.31	5.18153
4.32	5.16969
4.33	5.16541
4.34	5.15357
4.35	5.15916
4.36	5.15521
4.37	5.15127
4.38	5.16574
4.39	5.17265
4.4	5.15982
4.41	5.14206
4.42	5.14666
4.43	5.1414
4.44	5.13284
4.45	5.12265
4.46	5.14304
4.47	5.1391
4.48	5.14074
4.49	5.12331
4.5	5.12034
4.51	5.11574
4.52	5.12956
4.53	5.1187
4.54	5.10324
4.55	5.11541
4.56	5.11442
4.57	5.09107
4.58	5.10061
4.59	5.09173
4.6	5.09041
4.61	5.08416
4.62	5.08778
4.63	5.08317
4.64	5.08219
4.65	5.08613
4.66	5.07626
4.67	5.0664
4.68	5.0687
4.69	5.06837
4.7	5.05653
4.71	5.04929
4.72	5.05028
4.73	5.06113
4.74	5.05883
4.75	5.05488
4.76	5.04041
4.77	5.05916
4.78	5.05982
4.79	5.05521
4.8	5.04567
4.81	5.01442
4.82	5.01804
4.83	5.03843
4.84	5.01903
4.85	5.02264
4.86	5.03547
4.87	5.03284
4.88	5.02396
4.89	5.02791
4.9	5.02659
4.91	5.01837
4.92	4.99501
4.93	5.00981
4.94	4.99435
4.95	4.98383
4.96	5.01738
4.97	5.00521
4.98	4.97955
4.99	4.98185
5	4.99797
5.01	4.97758
5.02	4.97034
5.03	4.94929
5.04	4.96244
5.05	4.96771
5.06	4.95652
5.07	4.96047
5.08	4.95587
5.09	4.93646
5.1	4.94797
5.11	4.94896
5.12	4.94271
5.13	4.94008
5.14	4.94896
5.15	4.94501
5.16	4.94369
5.17	4.94369
5.18	4.94172
5.19	4.9335
5.2	4.93613
5.21	4.92527
5.22	4.90652
5.23	4.88448
5.24	4.9006
5.25	4.88481
5.26	4.88481
5.27	4.89929
5.28	4.89369
5.29	4.89501
5.3	4.89665
5.31	4.8983
5.32	4.88843
5.33	4.88777
5.34	4.88613
5.35	4.89665
5.36	4.88876
5.37	4.87001
5.38	4.88086
5.39	4.88514
5.4	4.87988
5.41	4.86771
5.42	4.86244
5.43	4.86738
5.44	4.8654
5.45	4.84534
5.46	4.85882
5.47	4.8483
5.48	4.86277
5.49	4.8427
5.5	4.83711
5.51	4.83876
5.52	4.84435
5.53	4.82856
5.54	4.84007
5.55	4.84172
5.56	4.85027
5.57	4.8154
5.58	4.81968
5.59	4.81606
5.6	4.82001
5.61	4.83349
5.62	4.81869
5.63	4.81343
5.64	4.81211
5.65	4.8279
5.66	4.81474
5.67	4.79336
5.68	4.80751
5.69	4.80455
5.7	4.79369
5.71	4.7927
5.72	4.79764
5.73	4.80422
5.74	4.78119
5.75	4.78974
5.76	4.78514
5.77	4.78283
5.78	4.78777
5.79	4.76474
5.8	4.78382
5.81	4.79665
5.82	4.77461
5.83	4.75849
5.84	4.7802
5.85	4.7756
5.86	4.76606
5.87	4.76277
5.88	4.76375
5.89	4.74862
5.9	4.74928
5.91	4.74007
5.92	4.7654
5.93	4.7427
5.94	4.73875
5.95	4.74829
5.96	4.73612
5.97	4.7404
5.98	4.73349
5.99	4.72889
6	4.71507
6.01	4.73152
6.02	4.74007
6.03	4.74632
6.04	4.74369
6.05	4.72889
6.06	4.71803
6.07	4.7052
6.08	4.68842
6.09	4.7154
6.1	4.69467
6.11	4.71211
6.12	4.7052
6.13	4.69763
6.14	4.68546
6.15	4.6779
6.16	4.70388
6.17	4.68382
6.18	4.67658
6.19	4.66079
6.2	4.67263
6.21	4.68777
6.22	4.69073
6.23	4.68415
6.24	4.68086
6.25	4.65586
6.26	4.66671
6.27	4.65717
6.28	4.66934
6.29	4.66901
6.3	4.68645
6.31	4.66441
6.32	4.64895
6.33	4.64632
6.34	4.66013
6.35	4.64401
6.36	4.65322
6.37	4.64467
6.38	4.6348
6.39	4.63809
6.4	4.62855
6.41	4.63415
6.42	4.63053
6.43	4.62592
6.44	4.63743
6.45	4.63776
6.46	4.65849
6.47	4.645
6.48	4.64401
6.49	4.62132
6.5	4.62066
6.51	4.5973
6.52	4.60783
6.53	4.63184
6.54	4.60487
6.55	4.58974
6.56	4.60092
6.57	4.60158
6.58	4.6052
6.59	4.6052
6.6	4.58678
6.61	4.59434
6.62	4.59664
6.63	4.57987
6.64	4.58908
6.65	4.59072
6.66	4.57592
6.67	4.57724
6.68	4.57296
6.69	4.58612
6.7	4.58776
6.71	4.58974
6.72	4.57362
6.73	4.56868
6.74	4.57066
6.75	4.57691
6.76	4.57296
6.77	4.57888
6.78	4.56605
6.79	4.56835
6.8	4.57099
6.81	4.57164
6.82	4.55816
6.83	4.56013
6.84	4.56802
6.85	4.5348
6.86	4.54598
6.87	4.57362
6.88	4.54105
6.89	4.52822
6.9	4.53908
6.91	4.55191
6.92	4.53414
6.93	4.5371
6.94	4.53677
6.95	4.54566
6.96	4.5473
6.97	4.52855
6.98	4.53381
6.99	4.54401
7	4.54664
7.01	4.53579
7.02	4.53348
7.03	4.52559
7.04	4.53217
7.05	4.52
7.06	4.53151
7.07	4.5223
7.08	4.51375
7.09	4.51342
7.1	4.50947
7.11	4.50947
7.12	4.52197
7.13	4.50421
7.14	4.49204
7.15	4.49006
7.16	4.50947
7.17	4.51671
7.18	4.50256
7.19	4.49631
7.2	4.49006
7.21	4.48085
7.22	4.49039
7.23	4.49171
7.24	4.48052
7.25	4.47032
7.26	4.47065
7.27	4.4769
7.28	4.4825
7.29	4.49105
7.3	4.47263
7.31	4.4598
7.32	4.45914
7.33	4.48743
7.34	4.46671
7.35	4.46868
7.36	4.4621
7.37	4.46407
7.38	4.47296
7.39	4.45026
7.4	4.4348
7.41	4.44138
7.42	4.44269
7.43	4.44664
7.44	4.44236
7.45	4.44171
7.46	4.4598
7.47	4.45322
7.48	4.45256
7.49	4.43743
7.5	4.42822
7.51	4.41966
7.52	4.42427
7.53	4.43743
7.54	4.42855
7.55	4.42065
7.56	4.44039
7.57	4.42592
7.58	4.41966
7.59	4.4246
7.6	4.43381
7.61	4.4098
7.62	4.41835
7.63	4.42197
7.64	4.40519
7.65	4.40914
7.66	4.42723
7.67	4.41276
7.68	4.41473
7.69	4.40618
7.7	4.40157
7.71	4.40848
7.72	4.4019
7.73	4.40256
7.74	4.39499
7.75	4.40059
7.76	4.3848
7.77	4.39203
7.78	4.39072
7.79	4.38118
7.8	4.37427
7.81	4.3769
7.82	4.37427
7.83	4.41177
7.84	4.38315
7.85	4.38381
7.86	4.3848
7.87	4.37065
7.88	4.39269
7.89	4.38611
7.9	4.37723
7.91	4.38644
7.92	4.3871
7.93	4.37098
7.94	4.36276
7.95	4.38545
7.96	4.3667
7.97	4.35058
7.98	4.36539
7.99	4.37197
8	4.3792
8.01	4.35782
8.02	4.35914
8.03	4.35256
8.04	4.36374
8.05	4.35025
8.06	4.34203
8.07	4.35289
8.08	4.35223
8.09	4.33479
8.1	4.33512
8.11	4.33973
8.12	4.36473
8.13	4.35716
8.14	4.32229
8.15	4.32558
8.16	4.34269
8.17	4.33775
8.18	4.32986
8.19	4.33414
8.2	4.35749
8.21	4.3315
8.22	4.31078
8.23	4.30354
8.24	4.33118
8.25	4.33118
8.26	4.32756
8.27	4.3144
8.28	4.32624
8.29	4.32361
8.3	4.32032
8.31	4.33052
8.32	4.32262
8.33	4.33611
8.34	4.30716
8.35	4.31012
8.36	4.32196
8.37	4.3121
8.38	4.30848
8.39	4.31407
8.4	4.31012
8.41	4.29795
8.42	4.29696
8.43	4.31012
8.44	4.31966
8.45	4.28677
8.46	4.30683
8.47	4.30914
8.48	4.29071
8.49	4.28315
8.5	4.29696
8.51	4.29696
8.52	4.30782
8.53	4.31308
8.54	4.29598
8.55	4.2894
8.56	4.27821
8.57	4.28052
8.58	4.29335
8.59	4.28413
8.6	4.29828
8.61	4.28973
8.62	4.27328
8.63	4.2667
8.64	4.26802
8.65	4.27163
8.66	4.25552
8.67	4.2644
8.68	4.26473
8.69	4.26637
8.7	4.26111
8.71	4.26045
8.72	4.24894
8.73	4.26604
8.74	4.2713
8.75	4.25157
8.76	4.24795
8.77	4.25486
8.78	4.25716
8.79	4.25223
8.8	4.25815
8.81	4.26144
8.82	4.2588
8.83	4.2417
8.84	4.24762
8.85	4.24598
8.86	4.23742
8.87	4.23841
8.88	4.24598
8.89	4.25979
8.9	4.24334
8.91	4.24598
8.92	4.24565
8.93	4.24433
8.94	4.22755
8.95	4.23051
8.96	4.24598
8.97	4.23479
8.98	4.24104
8.99	4.23808
9	4.24499
9.01	4.23775
9.02	4.23216
9.03	4.21834
9.04	4.22657
9.05	4.22492
9.06	4.23051
9.07	4.23216
9.08	4.21374
9.09	4.22032
9.1	4.22163
9.11	4.22854
9.12	4.22591
9.13	4.22361
9.14	4.21999
9.15	4.20058
9.16	4.21012
9.17	4.18972
9.18	4.20518
9.19	4.21111
9.2	4.21341
9.21	4.21111
9.22	4.19663
9.23	4.2088
9.24	4.2042
9.25	4.18972
9.26	4.19926
9.27	4.19268
9.28	4.2042
9.29	4.21209
9.3	4.20091
9.31	4.19795
9.32	4.19762
9.33	4.19367
9.34	4.18643
9.35	4.18709
9.36	4.1861
9.37	4.20124
9.38	4.17196
9.39	4.18413
9.4	4.18545
9.41	4.1713
9.42	4.18907
9.43	4.18709
9.44	4.18841
9.45	4.18446
9.46	4.18216
9.47	4.17985
9.48	4.1792
9.49	4.18084
9.5	4.18808
9.51	4.18709
9.52	4.19861
9.53	4.1838
9.54	4.1838
9.55	4.1792
9.56	4.17229
9.57	4.17887
9.58	4.20255
9.59	4.18479
9.6	4.16834
9.61	4.16505
9.62	4.16406
9.63	4.17985
9.64	4.17064
9.65	4.16966
9.66	4.16275
9.67	4.16637
9.68	4.17591
9.69	4.16768
9.7	4.15979
9.71	4.14466
9.72	4.15551
9.73	4.1463
9.74	4.14992
9.75	4.16308
9.76	4.16275
9.77	4.15485
9.78	4.16242
9.79	4.15814
9.8	4.1611
9.81	4.16374
9.82	4.15156
9.83	4.14071
9.84	4.15288
9.85	4.1417
9.86	4.14202
9.87	4.144
9.88	4.14959
9.89	4.13084
9.9	4.16374
9.91	4.1611
9.92	4.15683
9.93	4.12031
9.94	4.12821
9.95	4.11176
9.96	4.1338
9.97	4.14564
9.98	4.1417
9.99	4.13775
10	4.11472
10.01	4.13216
10.02	4.13676
10.03	4.13775
10.04	4.12492
10.05	4.12854
10.06	4.12985
10.07	4.12722
10.08	4.11242
10.09	4.12031
10.1	4.13709
10.11	4.13446
10.12	4.13775
10.13	4.12854
10.14	4.10387
10.15	4.10946
10.16	4.10913
10.17	4.12163
10.18	4.11308
10.19	4.11867
10.2	4.12591
10.21	4.11768
10.22	4.11341
10.23	4.13216
10.24	4.1213
10.25	4.11143
10.26	4.11044
10.27	4.11637
10.28	4.10716
10.29	4.11604
10.3	4.11637
10.31	4.09959
10.32	4.11571
10.33	4.10748
10.34	4.12623
10.35	4.11834
10.36	4.11702
10.37	4.119
10.38	4.11966
10.39	4.11867
10.4	4.08742
10.41	4.08808
10.42	4.09301
10.43	4.09104
10.44	4.11801
10.45	4.08544
10.46	4.08347
10.47	4.09235
10.48	4.10288
10.49	4.08906
10.5	4.09005
10.51	4.07854
10.52	4.09268
10.53	4.09367
10.54	4.08479
10.55	4.09433
10.56	4.07163
10.57	4.08775
10.58	4.07821
10.59	4.094
10.6	4.07031
10.61	4.07623
10.62	4.09104
10.63	4.10584
10.64	4.07755
10.65	4.07064
10.66	4.0634
10.67	4.05386
10.68	4.08873
10.69	4.07952
10.7	4.06998
10.71	4.07294
10.72	4.06636
10.73	4.07558
10.74	4.08117
10.75	4.07821
10.76	4.07163
10.77	4.05781
10.78	4.0861
10.79	4.07985
10.8	4.0736
10.81	4.07623
10.82	4.07492
10.83	4.07097
10.84	4.07327
10.85	4.06538
10.86	4.07525
10.87	4.08577
10.88	4.06867
10.89	4.05979
10.9	4.07459
10.91	4.069
10.92	4.07229
10.93	4.07623
10.94	4.07821
10.95	4.07031
10.96	4.06472
10.97	4.06998
10.98	4.07031
10.99	4.06406
11	4.0384
11.01	4.05781
11.02	4.0588
11.03	4.06406
11.04	4.06143
11.05	4.0565
11.06	4.06735
11.07	4.04761
11.08	4.04235
11.09	4.04728
11.1	4.05847
11.11	4.05847
11.12	4.06044
11.13	4.06044
11.14	4.05913
11.15	4.05682
11.16	4.05123
11.17	4.06077
11.18	4.06242
11.19	4.05584
11.2	4.05156
11.21	4.04564
11.22	4.03709
11.23	4.05946
11.24	4.04959
11.25	4.0463
11.26	4.04103
11.27	4.04235
11.28	4.04498
11.29	4.05485
11.3	4.04761
11.31	4.04794
11.32	4.02853
11.33	4.02459
11.34	4.03774
11.35	4.04202
11.36	4.03347
11.37	4.03774
11.38	4.04531
11.39	4.02393
11.4	4.0134
11.41	4.02821
11.42	4.03906
11.43	4.04926
11.44	4.05452
11.45	4.03117
11.46	4.05913
11.47	4.02853
11.48	4.01636
11.49	4.02886
11.5	4.03248
11.51	4.02228
11.52	4.01702
11.53	4.03051
11.54	4.04498
11.55	4.00945
11.56	4.01472
11.57	4.01044
11.58	4.01603
11.59	4.02163
11.6	4.01867
11.61	4.01242
11.62	4.0236
11.63	4.00452
11.64	4.01636
11.65	4.01801
11.66	4.01702
11.67	4.00156
11.68	4.00485
11.69	4.00945
11.7	4.02393
11.71	4.01636
11.72	4.01735
11.73	4.00616
11.74	4.00452
11.75	4.01274
11.76	4.01011
11.77	4.01801
11.78	4.01373
11.79	4.00748
11.8	3.99366
11.81	4.00945
11.82	4.02163
11.83	4.0111
11.84	4.01406
11.85	3.99728
11.86	4.01702
11.87	4.01011
11.88	3.99465
11.89	4.02722
11.9	4.01472
11.91	4.00847
11.92	4.00913
11.93	3.99893
11.94	4.00518
11.95	4.00913
11.96	3.99959
11.97	4.01242
11.98	4.0236
11.99	3.9986
12	3.99235
12.01	3.99399
12.02	3.99959
12.03	4.00386
12.04	4.00156
12.05	4.0009
12.06	4.00386
12.07	4.01373
12.08	3.98873
12.09	3.99991
12.1	4.01274
12.11	4.01274
12.12	3.99564
12.13	3.98972
12.14	3.99301
12.15	3.98215
12.16	3.99926
12.17	3.98544
12.18	3.98643
12.19	3.98544
12.2	3.98741
12.21	3.9759
12.22	3.9838
12.23	3.99005
12.24	3.98445
12.25	3.9861
12.26	3.98906
12.27	3.97952
12.28	3.98116
12.29	3.97853
12.3	3.9838
12.31	3.9782
12.32	3.98478
12.33	3.98281
12.34	3.98544
12.35	3.96439
12.36	3.9907
12.37	3.98084
12.38	3.98018
12.39	3.98149
12.4	3.99399
12.41	3.98972
12.42	3.97853
12.43	3.96603
12.44	3.97294
12.45	3.97195
12.46	3.97985
12.47	3.96932
12.48	3.96768
12.49	3.98215
12.5	3.97261
12.51	3.97228
12.52	3.97261
12.53	3.98149
12.54	3.9782
12.55	3.98051
12.56	3.97393
12.57	3.98347
12.58	3.98314
12.59	3.97524
12.6	3.96866
12.61	3.96307
12.62	3.96505
12.63	3.9884
12.64	3.97722
12.65	3.99169
12.66	3.96143
12.67	3.96833
12.68	3.96307
12.69	3.97853
12.7	3.96373
12.71	3.97491
12.72	3.9634
12.73	3.96373
12.74	3.96965
12.75	3.97327
12.76	3.96603
12.77	3.96998
12.78	3.9657
12.79	3.94169
12.8	3.95649
12.81	3.97228
12.82	3.96011
12.83	3.95419
12.84	3.94893
12.85	3.94991
12.86	3.95419
12.87	3.95978
12.88	3.95419
12.89	3.95518
12.9	3.95452
12.91	3.9611
12.92	3.96143
12.93	3.97755
12.94	3.9736
12.95	3.96077
12.96	3.95748
12.97	3.9782
12.98	3.95452
12.99	3.9634
13	3.96537
13.01	3.95222
13.02	3.9588
13.03	3.95649
13.04	3.94268
13.05	3.93774
13.06	3.94893
13.07	3.95912
13.08	3.95254
13.09	3.95682
13.1	3.96735
13.11	3.95814
13.12	3.94465
13.13	3.9407
13.14	3.94695
13.15	3.94695
13.16	3.94465
13.17	3.95287
13.18	3.94235
13.19	3.94794
13.2	3.95024
13.21	3.9361
13.22	3.95254
13.23	3.94827
13.24	3.94597
13.25	3.94827
13.26	3.95518
13.27	3.95551
13.28	3.93675
13.29	3.94169
13.3	3.93379
13.31	3.93116
13.32	3.94465
13.33	3.94564
13.34	3.95386
13.35	3.94399
13.36	3.93347
13.37	3.95024
13.38	3.95583
13.39	3.94399
13.4	3.94103
13.41	3.94926
13.42	3.94037
13.43	3.93379
13.44	3.95912
13.45	3.94136
13.46	3.9305
13.47	3.92195
13.48	3.93478
13.49	3.93116
13.5	3.92623
13.51	3.93215
13.52	3.91011
13.53	3.91702
13.54	3.93347
13.55	3.94004
13.56	3.93215
13.57	3.94333
13.58	3.95912
13.59	3.93577
13.6	3.93774
13.61	3.9407
13.62	3.92524
13.63	3.9282
13.64	3.91537
13.65	3.94333
13.66	3.93807
13.67	3.93182
13.68	3.92458
13.69	3.93511
13.7	3.93182
13.71	3.92754
13.72	3.92557
13.73	3.90517
13.74	3.9157
13.75	3.91406
13.76	3.90978
13.77	3.9157
13.78	3.91833
13.79	3.90583
13.8	3.93643
13.81	3.94004
13.82	3.92096
13.83	3.91702
13.84	3.91504
13.85	3.92491
13.86	3.93182
13.87	3.93445
13.88	3.9157
13.89	3.91406
13.9	3.92787
13.91	3.91175
13.92	3.93478
13.93	3.93708
13.94	3.92886
13.95	3.91537
13.96	3.91373
13.97	3.91603
13.98	3.93018
13.99	3.93281
14	3.94169
14.01	3.92261
14.02	3.92031
14.03	3.92425
14.04	3.91406
14.05	3.93083
14.06	3.92754
14.07	3.92261
14.08	3.92886
14.09	3.92689
14.1	3.92031
14.11	3.93347
14.12	3.9259
14.13	3.92623
14.14	3.91077
14.15	3.91768
14.16	3.9009
14.17	3.90978
14.18	3.91866
14.19	3.90682
14.2	3.9032
14.21	3.90517
14.22	3.91866
14.23	3.93379
14.24	3.90978
14.25	3.91077
14.26	3.90057
14.27	3.91044
14.28	3.92327
14.29	3.92656
14.3	3.89531
14.31	3.89892
14.32	3.90419
14.33	3.9009
14.34	3.89169
14.35	3.89958
14.36	3.89202
14.37	3.91241
14.38	3.92524
14.39	3.90287
14.4	3.91274
14.41	3.89465
14.42	3.90386
14.43	3.90748
14.44	3.91504
14.45	3.90386
14.46	3.89892
14.47	3.89103
14.48	3.90846
14.49	3.90057
14.5	3.88741
14.51	3.89662
14.52	3.90123
14.53	3.90517
14.54	3.89662
14.55	3.89169
14.56	3.9009
14.57	3.92294
14.58	3.91373
14.59	3.8986
14.6	3.90057
14.61	3.89925
14.62	3.88675
14.63	3.90386
14.64	3.88741
14.65	3.90748
14.66	3.90715
14.67	3.90287
14.68	3.89794
14.69	3.89235
14.7	3.88938
14.71	3.89925
14.72	3.8861
14.73	3.89267
14.74	3.91274
14.75	3.8884
14.76	3.90485
14.77	3.89498
14.78	3.90057
14.79	3.88906
14.8	3.90254
14.81	3.89794
14.82	3.89498
14.83	3.89596
14.84	3.89827
14.85	3.88346
14.86	3.89037
14.87	3.89103
14.88	3.88873
14.89	3.893
14.9	3.88938
14.91	3.88807
14.92	3.88675
14.93	3.89761
14.94	3.88544
14.95	3.88017
14.96	3.89531
14.97	3.88971
14.98	3.89892
14.99	3.88642
15	3.88938
15.01	3.88478
15.02	3.88971
15.03	3.88182
15.04	3.89564
15.05	3.87985
15.06	3.88741
15.07	3.88971
15.08	3.90287
15.09	3.88741
15.1	3.89498
15.11	3.893
15.12	3.90057
15.13	3.89498
15.14	3.86603
15.15	3.87425
15.16	3.88412
15.17	3.89794
15.18	3.88478
15.19	3.89136
15.2	3.89958
15.21	3.88511
15.22	3.88346
15.23	3.89399
15.24	3.868
15.25	3.88577
15.26	3.88873
15.27	3.87524
15.28	3.87557
15.29	3.88083
15.3	3.88116
15.31	3.89958
15.32	3.88281
15.33	3.88807
15.34	3.88313
15.35	3.86932
15.36	3.90024
15.37	3.89366
15.38	3.87228
15.39	3.88478
15.4	3.88412
15.41	3.87985
15.42	3.88182
15.43	3.88083
15.44	3.88215
15.45	3.88149
15.46	3.88938
15.47	3.88774
15.48	3.88412
15.49	3.88149
15.5	3.87228
15.51	3.87688
15.52	3.88116
15.53	3.8805
15.54	3.87162
15.55	3.87688
15.56	3.86767
15.57	3.87985
15.58	3.89596
15.59	3.87096
15.6	3.85846
15.61	3.8782
15.62	3.89004
15.63	3.87656
15.64	3.85715
15.65	3.8782
15.66	3.88478
15.67	3.88313
15.68	3.87031
15.69	3.87524
15.7	3.88215
15.71	3.87557
15.72	3.87162
15.73	3.87228
15.74	3.88379
15.75	3.87754
15.76	3.88478
15.77	3.88971
15.78	3.87195
15.79	3.87524
15.8	3.87129
15.81	3.85879
15.82	3.86833
15.83	3.86965
15.84	3.8782
15.85	3.87458
15.86	3.87656
15.87	3.89465
15.88	3.88807
15.89	3.8759
15.9	3.8782
15.91	3.86603
15.92	3.86702
15.93	3.89991
15.94	3.868
15.95	3.87031
15.96	3.87031
15.97	3.86767
15.98	3.85123
15.99	3.87524
16	3.87721
16.01	3.87261
16.02	3.8861
16.03	3.86899
16.04	3.85879
16.05	3.85517
16.06	3.87031
16.07	3.87721
16.08	3.8578
16.09	3.83873
16.1	3.85978
16.11	3.86406
16.12	3.86702
16.13	3.86504
16.14	3.86077
16.15	3.85155
16.16	3.85978
16.17	3.86965
16.18	3.8634
16.19	3.85254
16.2	3.86044
16.21	3.85945
16.22	3.86965
16.23	3.8634
16.24	3.86998
16.25	3.87985
16.26	3.86307
16.27	3.85254
16.28	3.87623
16.29	3.86471
16.3	3.87524
16.31	3.86109
16.32	3.85715
16.33	3.86636
16.34	3.86406
16.35	3.86077
16.36	3.86965
16.37	3.86965
16.38	3.86077
16.39	3.85484
16.4	3.84629
16.41	3.85287
16.42	3.83445
16.43	3.84662
16.44	3.84563
16.45	3.86307
16.46	3.8657
16.47	3.87359
16.48	3.85945
16.49	3.85024
16.5	3.84794
16.51	3.86504
16.52	3.85188
16.53	3.84794
16.54	3.86603
16.55	3.85123
16.56	3.85386
16.57	3.86142
16.58	3.87063
16.59	3.86109
16.6	3.85287
16.61	3.86932
16.62	3.85353
16.63	3.85715
16.64	3.85386
16.65	3.86373
16.66	3.85715
16.67	3.86833
16.68	3.86044
16.69	3.85583
16.7	3.84991
16.71	3.85616
16.72	3.85155
16.73	3.85254
16.74	3.85616
16.75	3.86932
16.76	3.84892
16.77	3.85188
16.78	3.85517
16.79	3.8555
16.8	3.86438
16.81	3.85123
16.82	3.85155
16.83	3.86044
16.84	3.85616
16.85	3.86307
16.86	3.85452
16.87	3.84695
16.88	3.84563
16.89	3.85287
16.9	3.85155
16.91	3.85583
16.92	3.84991
16.93	3.83938
16.94	3.85748
16.95	3.85583
16.96	3.85813
16.97	3.84728
16.98	3.85517
16.99	3.85912
17	3.85945
17.01	3.87261
17.02	3.86504
17.03	3.85353
17.04	3.87557
17.05	3.85188
17.06	3.85583
17.07	3.86044
17.08	3.86241
17.09	3.86471
17.1	3.843
17.11	3.84662
17.12	3.84432
17.13	3.84201
17.14	3.85813
17.15	3.87656
17.16	3.85715
17.17	3.84925
17.18	3.868
17.19	3.84498
17.2	3.83017
17.21	3.84629
17.22	3.84859
17.23	3.84267
17.24	3.83741
17.25	3.85452
17.26	3.84629
17.27	3.84563
17.28	3.84794
17.29	3.85649
17.3	3.85945
17.31	3.8453
17.32	3.82886
17.33	3.84267
17.34	3.83313
17.35	3.83609
17.36	3.85912
17.37	3.84991
17.38	3.84267
17.39	3.83313
17.4	3.84728
17.41	3.84498
17.42	3.83675
17.43	3.84695
17.44	3.83642
17.45	3.83938
17.46	3.84234
17.47	3.82359
17.48	3.8407
17.49	3.84728
17.5	3.84794
17.51	3.85287
17.52	3.84267
17.53	3.81701
17.54	3.84103
17.55	3.83971
17.56	3.82655
17.57	3.83905
17.58	3.84136
17.59	3.84629
17.6	3.84037
17.61	3.843
17.62	3.83774
17.63	3.83774
17.64	3.84629
17.65	3.85748
17.66	3.83807
17.67	3.843
17.68	3.84333
17.69	3.85616
17.7	3.83938
17.71	3.83248
17.72	3.84563
17.73	3.85024
17.74	3.84662
17.75	3.85188
17.76	3.84892
17.77	3.83774
17.78	3.8407
17.79	3.84432
17.8	3.83017
17.81	3.81866
17.82	3.83478
17.83	3.85123
17.84	3.8555
17.85	3.82984
17.86	3.84399
17.87	3.84662
17.88	3.83938
17.89	3.83544
17.9	3.8203
17.91	3.82951
17.92	3.85123
17.93	3.84201
17.94	3.83248
17.95	3.83774
17.96	3.83445
17.97	3.84892
17.98	3.85123
17.99	3.82359
18	3.84827
18.01	3.84958
18.02	3.83807
18.03	3.85123
18.04	3.84103
18.05	3.83248
18.06	3.82853
18.07	3.8305
18.08	3.84267
18.09	3.84267
18.1	3.83313
18.11	3.82951
18.12	3.82392
18.13	3.83708
18.14	3.8305
18.15	3.82919
18.16	3.83609
18.17	3.843
18.18	3.82326
18.19	3.82655
18.2	3.83675
18.21	3.8407
18.22	3.8384
18.23	3.82524
18.24	3.82326
18.25	3.83017
18.26	3.8328
18.27	3.81997
18.28	3.83083
18.29	3.82491
18.3	3.83083
18.31	3.82294
18.32	3.83017
18.33	3.8328
18.34	3.85287
18.35	3.81997
18.36	3.81405
18.37	3.81997
18.38	3.82096
18.39	3.83116
18.4	3.83609
18.41	3.83642
18.42	3.82853
18.43	3.83873
18.44	3.84366
18.45	3.8407
18.46	3.82787
18.47	3.82491
18.48	3.82787
18.49	3.83609
18.5	3.83083
18.51	3.82392
18.52	3.81109
18.53	3.8328
18.54	3.82261
18.55	3.8203
18.56	3.81669
18.57	3.83873
18.58	3.84498
18.59	3.83544
18.6	3.81669
18.61	3.81833
18.62	3.8259
18.63	3.8157
18.64	3.83116
18.65	3.83642
18.66	3.80649
18.67	3.80057
18.68	3.81405
18.69	3.83149
18.7	3.82688
18.71	3.80879
18.72	3.8328
18.73	3.8259
18.74	3.82096
18.75	3.80155
18.76	3.82425
18.77	3.82524
18.78	3.83017
18.79	3.83642
18.8	3.83346
18.81	3.83346
18.82	3.84761
18.83	3.83083
18.84	3.82655
18.85	3.83346
18.86	3.81899
18.87	3.81044
18.88	3.83215
18.89	3.83412
18.9	3.82721
18.91	3.80287
18.92	3.81932
18.93	3.82688
18.94	3.84794
18.95	3.83445
18.96	3.82557
18.97	3.83478
18.98	3.82754
18.99	3.82162
19	3.79793
19.01	3.82425
19.02	3.82984
19.03	3.82228
19.04	3.83774
19.05	3.83544
19.06	3.83083
19.07	3.81997
19.08	3.81307
19.09	3.81636
19.1	3.82754
19.11	3.83215
19.12	3.85024
19.13	3.83215
19.14	3.82655
19.15	3.82886
19.16	3.82491
19.17	3.81866
19.18	3.81669
19.19	3.82787
19.2	3.83083
19.21	3.81636
19.22	3.82326
19.23	3.81701
19.24	3.81669
19.25	3.81932
19.26	3.80945
19.27	3.82655
19.28	3.81669
19.29	3.8157
19.3	3.83116
19.31	3.81899
19.32	3.80287
19.33	3.81767
19.34	3.79859
19.35	3.81603
19.36	3.81866
19.37	3.82359
19.38	3.8078
19.39	3.80846
19.4	3.81997
19.41	3.83017
19.42	3.84761
19.43	3.8282
19.44	3.83182
19.45	3.82458
19.46	3.82425
19.47	3.81175
19.48	3.82655
19.49	3.82326
19.5	3.82557
19.51	3.82326
19.52	3.81274
19.53	3.82162
19.54	3.82655
19.55	3.81438
19.56	3.81372
19.57	3.82557
19.58	3.81504
19.59	3.82886
19.6	3.81932
19.61	3.81734
19.62	3.82195
19.63	3.81866
19.64	3.82754
19.65	3.83478
19.66	3.82721
19.67	3.81866
19.68	3.81471
19.69	3.80418
19.7	3.80747
19.71	3.81866
19.72	3.82754
19.73	3.83675
19.74	3.83149
19.75	3.82162
19.76	3.80715
19.77	3.81044
19.78	3.80583
19.79	3.8203
19.8	3.80386
19.81	3.82228
19.82	3.82063
19.83	3.8203
19.84	3.82984
19.85	3.81471
19.86	3.81504
19.87	3.81603
19.88	3.80813
19.89	3.83346
19.9	3.82458
19.91	3.80715
19.92	3.81109
19.93	3.82096
19.94	3.82853
19.95	3.81965
19.96	3.81307
19.97	3.82228
19.98	3.81997
19.99	3.81142
20	3.82294
20.01	3.83346
20.02	3.81438
20.03	3.80912
20.04	3.8282
20.05	3.80254
20.06	3.79991
20.07	3.80978
20.08	3.81274
20.09	3.81504
20.1	3.80945
20.11	3.82886
20.12	3.80813
20.13	3.81767
20.14	3.81307
20.15	3.82359
20.16	3.83708
20.17	3.81504
20.18	3.81997
20.19	3.82853
20.2	3.8328
20.21	3.81011
20.22	3.82754
20.23	3.8282
20.24	3.8134
20.25	3.82326
20.26	3.81405
20.27	3.80484
20.28	3.80879
20.29	3.81636
20.3	3.81076
20.31	3.81011
20.32	3.79991
20.33	3.80682
20.34	3.78905
20.35	3.79991
20.36	3.81011
20.37	3.81241
20.38	3.80484
20.39	3.7907
20.4	3.81011
20.41	3.80484
20.42	3.81109
20.43	3.81241
20.44	3.80583
20.45	3.80254
20.46	3.81833
20.47	3.82162
20.48	3.81932
20.49	3.81076
20.5	3.80616
20.51	3.81405
20.52	3.81175
20.53	3.79793
20.54	3.80484
20.55	3.80221
20.56	3.80978
20.57	3.82787
20.58	3.82886
20.59	3.80945
20.6	3.80057
20.61	3.81833
20.62	3.81833
20.63	3.81044
20.64	3.80879
20.65	3.80287
20.66	3.80846
20.67	3.79892
20.68	3.81241
20.69	3.81076
20.7	3.81405
20.71	3.8134
20.72	3.80978
20.73	3.79201
20.74	3.79629
20.75	3.82623
20.76	3.8032
20.77	3.80188
20.78	3.79958
20.79	3.80813
20.8	3.80912
20.81	3.79892
20.82	3.79991
20.83	3.78511
20.84	3.80451
20.85	3.79991
20.86	3.80813
20.87	3.81833
20.88	3.79793
20.89	3.80616
20.9	3.80945
20.91	3.8078
20.92	3.80254
20.93	3.81899
20.94	3.80616
20.95	3.80978
20.96	3.81175
20.97	3.82195
20.98	3.80747
20.99	3.79629
21	3.79234
21.01	3.80451
21.02	3.8009
21.03	3.80945
21.04	3.80912
21.05	3.79168
21.06	3.80418
21.07	3.81965
21.08	3.80649
21.09	3.80583
21.1	3.80682
21.11	3.80945
21.12	3.82096
21.13	3.81405
21.14	3.82359
21.15	3.80682
21.16	3.8078
21.17	3.79366
21.18	3.79267
21.19	3.81603
21.2	3.78971
21.21	3.79267
21.22	3.80879
21.23	3.81142
21.24	3.81044
21.25	3.79925
21.26	3.79267
21.27	3.78971
21.28	3.80353
21.29	3.79958
21.3	3.78313
21.31	3.79892
21.32	3.80254
21.33	3.8009
21.34	3.8009
21.35	3.79465
21.36	3.793
21.37	3.7953
21.38	3.81537
21.39	3.80024
21.4	3.80813
21.41	3.80155
21.42	3.793
21.43	3.81372
21.44	3.81307
21.45	3.79761
21.46	3.81438
21.47	3.79366
21.48	3.79826
21.49	3.80517
21.5	3.80254
21.51	3.80715
21.52	3.80418
21.53	3.8032
21.54	3.80386
21.55	3.79958
21.56	3.79563
21.57	3.80682
21.58	3.79958
21.59	3.79662
21.6	3.79563
21.61	3.80353
21.62	3.80484
21.63	3.81438
21.64	3.78807
21.65	3.80484
21.66	3.80484
21.67	3.79333
21.68	3.79465
21.69	3.81208
21.7	3.80715
21.71	3.79859
21.72	3.81109
21.73	3.80024
21.74	3.79596
21.75	3.8078
21.76	3.80418
21.77	3.80912
21.78	3.78576
21.79	3.79333
21.8	3.81142
21.81	3.79991
21.82	3.7953
21.83	3.80254
21.84	3.80418
21.85	3.80484
21.86	3.78576
21.87	3.81372
21.88	3.82162
21.89	3.8134
21.9	3.80583
21.91	3.78708
21.92	3.7953
21.93	3.79826
21.94	3.78938
21.95	3.80353
21.96	3.79859
21.97	3.80188
21.98	3.8078
21.99	3.79695
22	3.77458
22.01	3.79793
22.02	3.80418
22.03	3.79136
22.04	3.78609
22.05	3.8078
22.06	3.79004
22.07	3.80122
22.08	3.80813
22.09	3.8032
22.1	3.80649
22.11	3.793
22.12	3.80057
22.13	3.79596
22.14	3.81307
22.15	3.81208
22.16	3.78017
22.17	3.79826
22.18	3.79432
22.19	3.80484
22.2	3.79168
22.21	3.78313
22.22	3.80353
22.23	3.77886
22.24	3.80254
22.25	3.81109
22.26	3.79695
22.27	3.79168
22.28	3.79728
22.29	3.78708
22.3	3.80188
22.31	3.80747
22.32	3.79333
22.33	3.78741
22.34	3.80057
22.35	3.79333
22.36	3.78346
22.37	3.79859
22.38	3.78412
22.39	3.78708
22.4	3.78247
22.41	3.79234
22.42	3.79004
22.43	3.79037
22.44	3.80484
22.45	3.80287
22.46	3.80353
22.47	3.793
22.48	3.7953
22.49	3.78971
22.5	3.80616
22.51	3.78741
22.52	3.78741
22.53	3.78675
22.54	3.79136
22.55	3.78839
22.56	3.79037
22.57	3.78774
22.58	3.79037
22.59	3.78247
22.6	3.78346
22.61	3.79596
22.62	3.78412
22.63	3.78576
22.64	3.79892
22.65	3.7953
22.66	3.79892
22.67	3.79958
22.68	3.78708
22.69	3.79596
22.7	3.79826
22.71	3.79629
22.72	3.79497
22.73	3.79761
22.74	3.79037
22.75	3.78905
22.76	3.78839
22.77	3.79333
22.78	3.8078
22.79	3.79958
22.8	3.80715
22.81	3.79793
22.82	3.8032
22.83	3.80057
22.84	3.80254
22.85	3.78872
22.86	3.79201
22.87	3.79826
22.88	3.78807
22.89	3.79037
22.9	3.79695
22.91	3.79892
22.92	3.80583
22.93	3.78872
22.94	3.7907
22.95	3.78807
22.96	3.79925
22.97	3.8009
22.98	3.79859
22.99	3.79826
23	3.80155
23.01	3.78807
23.02	3.78511
23.03	3.7907
23.04	3.79267
23.05	3.79136
23.06	3.7953
23.07	3.80122
23.08	3.79432
23.09	3.79563
23.1	3.79826
23.11	3.79662
23.12	3.77721
23.13	3.80024
23.14	3.80188
23.15	3.8009
23.16	3.78017
23.17	3.77458
23.18	3.78938
23.19	3.79037
23.2	3.79826
23.21	3.78313
23.22	3.78872
23.23	3.78346
23.24	3.78543
23.25	3.79662
23.26	3.80583
23.27	3.77886
23.28	3.79004
23.29	3.78346
23.3	3.78971
23.31	3.78379
23.32	3.78149
23.33	3.78116
23.34	3.7805
23.35	3.77754
23.36	3.79267
23.37	3.79563
23.38	3.79333
23.39	3.79267
23.4	3.80682
23.41	3.78149
23.42	3.78247
23.43	3.77918
23.44	3.78543
23.45	3.79793
23.46	3.79859
23.47	3.78741
23.48	3.78708
23.49	3.78313
23.5	3.78642
23.51	3.79925
23.52	3.79925
23.53	3.79432
23.54	3.79366
23.55	3.80024
23.56	3.77787
23.57	3.78807
23.58	3.77195
23.59	3.77622
23.6	3.78379
23.61	3.79037
23.62	3.80057
23.63	3.80254
23.64	3.78642
23.65	3.78445
23.66	3.79465
23.67	3.78214
23.68	3.77359
23.69	3.77721
23.7	3.77458
23.71	3.78379
23.72	3.80254
23.73	3.7907
23.74	3.78346
23.75	3.78017
23.76	3.79333
23.77	3.77754
23.78	3.78511
23.79	3.78938
23.8	3.7805
23.81	3.78872
23.82	3.80188
23.83	3.79168
23.84	3.79366
23.85	3.8009
23.86	3.77326
23.87	3.77458
23.88	3.77096
23.89	3.77063
23.9	3.78905
23.91	3.78346
23.92	3.78741
23.93	3.78478
23.94	3.76767
23.95	3.78774
23.96	3.79563
23.97	3.7953
23.98	3.79859
23.99	3.79103
24	3.77458
24.01	3.78313
24.02	3.79695
24.03	3.80057
24.04	3.78872
24.05	3.77853
24.06	3.78116
24.07	3.76833
24.08	3.77589
24.09	3.77129
24.1	3.78971
24.11	3.7726
24.12	3.77359
24.13	3.76833
24.14	3.76471
24.15	3.77359
24.16	3.76932
24.17	3.78182
24.18	3.79201
24.19	3.7907
24.2	3.77524
24.21	3.78313
24.22	3.77688
24.23	3.768
24.24	3.79037
24.25	3.80353
24.26	3.78379
24.27	3.78774
24.28	3.79596
24.29	3.77984
24.3	3.78346
24.31	3.79168
24.32	3.78839
24.33	3.78905
24.34	3.80057
24.35	3.78576
24.36	3.77655
24.37	3.78116
24.38	3.77951
24.39	3.78675
24.4	3.78905
24.41	3.7726
24.42	3.77359
24.43	3.78478
24.44	3.77228
24.45	3.78905
24.46	3.80517
24.47	3.78642
24.48	3.78839
24.49	3.79563
24.5	3.78807
24.51	3.78247
24.52	3.79201
24.53	3.78346
24.54	3.76668
24.55	3.77787
24.56	3.78642
24.57	3.78774
24.58	3.79103
24.59	3.7782
24.6	3.7726
24.61	3.77721
24.62	3.7657
24.63	3.78445
24.64	3.76504
24.65	3.78346
24.66	3.78346
24.67	3.793
24.68	3.79695
24.69	3.78938
24.7	3.78247
24.71	3.77589
24.72	3.77951
24.73	3.77458
24.74	3.79399
24.75	3.78412
24.76	3.77951
24.77	3.77951
24.78	3.78642
24.79	3.79366
24.8	3.7953
24.81	3.79958
24.82	3.79465
24.83	3.78214
24.84	3.78445
24.85	3.78116
24.86	3.80057
24.87	3.77754
24.88	3.78214
24.89	3.7805
24.9	3.77951
24.91	3.78116
24.92	3.78017
24.93	3.80254
24.94	3.7907
24.95	3.79267
24.96	3.78543
24.97	3.77853
24.98	3.78083
24.99	3.77589
25	3.78642
25.01	3.78511
25.02	3.78609
25.03	3.78149
25.04	3.79103
25.05	3.78313
25.06	3.78872
25.07	3.78708
25.08	3.77622
25.09	3.78346
25.1	3.7782
25.11	3.79201
25.12	3.80451
25.13	3.77853
25.14	3.77458
25.15	3.77655
25.16	3.78346
25.17	3.78642
25.18	3.78182
25.19	3.78609
25.2	3.77096
25.21	3.77063
25.22	3.78774
25.23	3.77359
25.24	3.78609
25.25	3.79695
25.26	3.78313
25.27	3.76734
25.28	3.77951
25.29	3.78214
25.3	3.78938
25.31	3.76274
25.32	3.78379
25.33	3.78116
25.34	3.78182
25.35	3.77984
25.36	3.77326
25.37	3.77359
25.38	3.77392
25.39	3.78478
25.4	3.76997
25.41	3.77228
25.42	3.77754
25.43	3.77984
25.44	3.78313
25.45	3.793
25.46	3.78642
25.47	3.79103
25.48	3.78116
25.49	3.78346
25.5	3.78116
25.51	3.78017
25.52	3.77688
25.53	3.77162
25.54	3.76866
25.55	3.7907
25.56	3.78576
25.57	3.77458
25.58	3.78905
25.59	3.77293
25.6	3.78905
25.61	3.78675
25.62	3.77524
25.63	3.79168
25.64	3.78576
25.65	3.77984
25.66	3.76997
25.67	3.79037
25.68	3.78938
25.69	3.76899
25.7	3.77228
25.71	3.78576
25.72	3.7703
25.73	3.77951
25.74	3.79629
25.75	3.78872
25.76	3.77886
25.77	3.77589
25.78	3.78346
25.79	3.77425
25.8	3.77951
25.81	3.78379
25.82	3.76635
25.83	3.76899
25.84	3.78412
25.85	3.78247
25.86	3.77886
25.87	3.77195
25.88	3.78214
25.89	3.77195
25.9	3.76372
25.91	3.77918
25.92	3.76964
25.93	3.77326
25.94	3.76635
25.95	3.77096
25.96	3.77359
25.97	3.77622
25.98	3.77589
25.99	3.77557
26	3.77425
26.01	3.76734
26.02	3.78182
26.03	3.76964
26.04	3.7805
26.05	3.77491
26.06	3.77589
26.07	3.78511
26.08	3.77688
26.09	3.76438
26.1	3.7828
26.11	3.76701
26.12	3.74958
26.13	3.76964
26.14	3.76701
26.15	3.78872
26.16	3.78346
26.17	3.78412
26.18	3.79629
26.19	3.78971
26.2	3.78839
26.21	3.77326
26.22	3.75879
26.23	3.76504
26.24	3.77129
26.25	3.78313
26.26	3.78971
26.27	3.76109
26.28	3.77688
26.29	3.77063
26.3	3.78346
26.31	3.78182
26.32	3.77951
26.33	3.76339
26.34	3.77721
26.35	3.78609
26.36	3.78872
26.37	3.76471
26.38	3.76438
26.39	3.79037
26.4	3.79103
26.41	3.78774
26.42	3.7782
26.43	3.76142
26.44	3.77458
26.45	3.7805
26.46	3.78346
26.47	3.77524
26.48	3.7601
26.49	3.77359
26.5	3.78379
26.51	3.76899
26.52	3.77787
26.53	3.76208
26.54	3.75353
26.55	3.76603
26.56	3.76932
26.57	3.77129
26.58	3.76438
26.59	3.78609
26.6	3.77886
26.61	3.77129
26.62	3.76372
26.63	3.78116
26.64	3.77984
26.65	3.793
26.66	3.77491
26.67	3.77162
26.68	3.77557
26.69	3.77392
26.7	3.77951
26.71	3.7657
26.72	3.77425
26.73	3.77228
26.74	3.7805
26.75	3.75813
26.76	3.78083
26.77	3.77392
26.78	3.77326
26.79	3.77491
26.8	3.78708
26.81	3.78971
26.82	3.77458
26.83	3.77063
26.84	3.78675
26.85	3.78346
26.86	3.77063
26.87	3.78872
26.88	3.76932
26.89	3.76866
26.9	3.768
26.91	3.77425
26.92	3.768
26.93	3.78741
26.94	3.7726
26.95	3.77228
26.96	3.76438
26.97	3.76175
26.98	3.76438
26.99	3.75747
27	3.77787
27.01	3.76504
27.02	3.77162
27.03	3.7703
27.04	3.76997
27.05	3.77655
27.06	3.77886
27.07	3.77392
27.08	3.78543
27.09	3.75846
27.1	3.77622
27.11	3.76405
27.12	3.76767
27.13	3.7532
27.14	3.74037
27.15	3.76734
27.16	3.78313
27.17	3.77491
27.18	3.76307
27.19	3.77524
27.2	3.76899
27.21	3.77491
27.22	3.76833
27.23	3.76175
27.24	3.77524
27.25	3.77688
27.26	3.77589
27.27	3.77688
27.28	3.75714
27.29	3.74925
27.3	3.76208
27.31	3.76438
27.32	3.75747
27.33	3.76339
27.34	3.76175
27.35	3.76076
27.36	3.77096
27.37	3.76438
27.38	3.77524
27.39	3.76997
27.4	3.78017
27.41	3.77787
27.42	3.76438
27.43	3.7578
27.44	3.77557
27.45	3.76537
27.46	3.76208
27.47	3.75912
27.48	3.76076
27.49	3.78609
27.5	3.7657
27.51	3.75945
27.52	3.77096
27.53	3.76964
27.54	3.77129
27.55	3.7726
27.56	3.7726
27.57	3.76866
27.58	3.78511
27.59	3.76339
27.6	3.76635
27.61	3.7578
27.62	3.76701
27.63	3.76241
27.64	3.77721
27.65	3.77162
27.66	3.77491
27.67	3.76372
27.68	3.76405
27.69	3.75649
27.7	3.77557
27.71	3.78346
27.72	3.78741
27.73	3.78379
27.74	3.79465
27.75	3.7828
27.76	3.77392
27.77	3.77195
27.78	3.76932
27.79	3.76241
27.8	3.76076
27.81	3.76997
27.82	3.77293
27.83	3.77951
27.84	3.77096
27.85	3.78083
27.86	3.76405
27.87	3.76504
27.88	3.77293
27.89	3.74333
27.9	3.76109
27.91	3.77359
27.92	3.75747
27.93	3.76635
27.94	3.7555
27.95	3.77293
27.96	3.78576
27.97	3.78609
27.98	3.77491
27.99	3.76833
28	3.76701
28.01	3.76471
28.02	3.78379
28.03	3.76504
28.04	3.76241
28.05	3.77589
28.06	3.78478
28.07	3.78214
28.08	3.76734
28.09	3.75978
28.1	3.768
28.11	3.77195
28.12	3.78313
28.13	3.77951
28.14	3.77557
28.15	3.77524
28.16	3.77063
28.17	3.75846
28.18	3.76701
28.19	3.76537
28.2	3.7657
28.21	3.76471
28.22	3.76668
28.23	3.77293
28.24	3.76964
28.25	3.76504
28.26	3.76767
28.27	3.76307
28.28	3.77228
28.29	3.77721
28.3	3.78214
28.31	3.78576
28.32	3.7726
28.33	3.768
28.34	3.76635
28.35	3.76405
28.36	3.76438
28.37	3.76701
28.38	3.75385
28.39	3.76142
28.4	3.74826
28.41	3.76833
28.42	3.76701
28.43	3.77754
28.44	3.7703
28.45	3.75254
28.46	3.75681
28.47	3.75978
28.48	3.77359
28.49	3.76241
28.5	3.75155
28.51	3.77557
28.52	3.77359
28.53	3.75649
28.54	3.75418
28.55	3.75945
28.56	3.76208
28.57	3.7726
28.58	3.78741
28.59	3.77392
28.6	3.768
28.61	3.75056
28.62	3.75945
28.63	3.76932
28.64	3.75583
28.65	3.75188
28.66	3.768
28.67	3.7703
28.68	3.78247
28.69	3.77458
28.7	3.7703
28.71	3.77129
28.72	3.74596
28.73	3.75714
28.74	3.7657
28.75	3.76899
28.76	3.75221
28.77	3.75945
28.78	3.76701
28.79	3.77524
28.8	3.76964
28.81	3.76537
28.82	3.76833
28.83	3.76438
28.84	3.75879
28.85	3.76307
28.86	3.76635
28.87	3.76471
28.88	3.76109
28.89	3.76307
28.9	3.75451
28.91	3.76175
28.92	3.75846
28.93	3.76109
28.94	3.7601
28.95	3.76274
28.96	3.76372
28.97	3.76241
28.98	3.76076
28.99	3.75583
29	3.77293
29.01	3.76504
29.02	3.75254
29.03	3.76372
29.04	3.76076
29.05	3.7703
29.06	3.77293
29.07	3.77359
29.08	3.77655
29.09	3.78346
29.1	3.77096
29.11	3.76899
29.12	3.768
29.13	3.77458
29.14	3.76701
29.15	3.75747
29.16	3.74135
29.17	3.7601
29.18	3.75221
29.19	3.76142
29.2	3.75385
29.21	3.75714
29.22	3.77063
29.23	3.78675
29.24	3.76307
29.25	3.75583
29.26	3.76274
29.27	3.76241
29.28	3.77293
29.29	3.76471
29.3	3.77228
29.31	3.75649
29.32	3.76964
29.33	3.76964
29.34	3.76208
29.35	3.76964
29.36	3.768
29.37	3.77886
29.38	3.7703
29.39	3.75583
29.4	3.76339
29.41	3.76274
29.42	3.75056
29.43	3.77557
29.44	3.76964
29.45	3.77063
29.46	3.75879
29.47	3.76932
29.48	3.7601
29.49	3.75517
29.5	3.75879
29.51	3.77129
29.52	3.76307
29.53	3.77228
29.54	3.75714
29.55	3.76471
29.56	3.75451
29.57	3.76405
29.58	3.76043
29.59	3.75517
29.6	3.76208
29.61	3.76932
29.62	3.77524
29.63	3.75649
29.64	3.75616
29.65	3.76866
29.66	3.76471
29.67	3.75418
29.68	3.73543
29.69	3.75714
29.7	3.75451
29.71	3.7532
29.72	3.75418
29.73	3.75681
29.74	3.75879
29.75	3.75353
29.76	3.75254
29.77	3.77096
29.78	3.75912
29.79	3.768
29.8	3.77425
29.81	3.75846
29.82	3.7601
29.83	3.7726
29.84	3.76274
29.85	3.76866
29.86	3.77063
29.87	3.7578
29.88	3.75583
29.89	3.76504
29.9	3.76339
29.91	3.76833
29.92	3.76701
29.93	3.76537
29.94	3.76208
29.95	3.78576
29.96	3.77557
29.97	3.76668
29.98	3.76767
29.99	3.76241
30	3.75912
