"BIO-KINE ASCII FILE"
"_COMMENT"	"MOS-500 Spectrometer"
"_COMMENT"	"Kinetics measurement"
"_COMMENT"	"Y Unit : Volt,  X Unit : s"
"_COMMENT"	"Excitation wavelength : 380 nm"
"_COMMENT"	"Fentes bandwidth =  1 nm"
"_COMMENT"	"HV= 575V"
"_COMMENT"	"Timebase  1 =  .01 s   3001 pts"
"_SFM"	"SFM-400 /S  Advanced mode"
"_SFM"	"Ratio : S1: 2.5, S2: 0, S3: 0, S4: 1"
"_SFM"	"Content : S1: , S2: , S3: , S4:"
"_SFM"	"Concentration : S1: , S2: , S3: , S4:"
"_SFM"	"Total volume : 209 µl  Flow : 3.5 mL/s"
"_SFM"	"Acquisition start :  10 ms before stop"
"_SFM"	"cuve=FC-15, s1=10 ml , s2=10 ml , s3=10 ml , s4=1.9 ml"
"_UNITX"	"s"
"_UNITY"	"Volt"
"_DELTAX"	0
"_DATA"
1e-300	5.08778
0.01	5.5118
0.02	5.81115
0.03	5.88352
0.04	5.88681
0.05	5.89208
0.06	5.89603
0.07	5.90063
0.08	5.90293
0.09	5.91182
0.1	5.91543
0.11	5.91412
0.12	5.91543
0.13	5.91543
0.14	5.91412
0.15	5.91774
0.16	5.91807
0.17	5.91478
0.18	5.91445
0.19	5.91938
0.2	5.91149
0.21	5.90721
0.22	5.9082
0.23	5.89931
0.24	5.89668
0.25	5.89767
0.26	5.89997
0.27	5.898
0.28	5.89076
0.29	5.88846
0.3	5.89339
0.31	5.88451
0.32	5.88451
0.33	5.88451
0.34	5.87925
0.35	5.87958
0.36	5.87168
0.37	5.86938
0.38	5.86675
0.39	5.86445
0.4	5.85984
0.41	5.85787
0.42	5.85852
0.43	5.84602
0.44	5.84635
0.45	5.84339
0.46	5.84043
0.47	5.83616
0.48	5.82793
0.49	5.82398
0.5	5.82662
0.51	5.82398
0.52	5.82234
0.53	5.81214
0.54	5.80589
0.55	5.80392
0.56	5.80425
0.57	5.79931
0.58	5.7924
0.59	5.79273
0.6	5.78879
0.61	5.78319
0.62	5.77925
0.63	5.77398
0.64	5.77201
0.65	5.77135
0.66	5.76806
0.67	5.75951
0.68	5.7503
0.69	5.74832
0.7	5.74076
0.71	5.73517
0.72	5.74109
0.73	5.73418
0.74	5.72826
0.75	5.72234
0.76	5.71477
0.77	5.71444
0.78	5.7072
0.79	5.7072
0.8	5.69832
0.81	5.69437
0.82	5.6901
0.83	5.68944
0.84	5.68253
0.85	5.68911
0.86	5.6753
0.87	5.67365
0.88	5.67003
0.89	5.66345
0.9	5.6526
0.91	5.6549
0.92	5.64997
0.93	5.6424
0.94	5.64174
0.95	5.63878
0.96	5.63352
0.97	5.62266
0.98	5.62003
0.99	5.61839
1	5.61378
1.01	5.61477
1.02	5.60687
1.03	5.60029
1.04	5.59832
1.05	5.59273
1.06	5.5901
1.07	5.58385
1.08	5.57825
1.09	5.57069
1.1	5.57595
1.11	5.56575
1.12	5.56213
1.13	5.55917
1.14	5.55161
1.15	5.55325
1.16	5.547
1.17	5.5322
1.18	5.53648
1.19	5.53746
1.2	5.52825
1.21	5.52101
1.22	5.5197
1.23	5.51641
1.24	5.50555
1.25	5.4993
1.26	5.49667
1.27	5.4947
1.28	5.49272
1.29	5.49042
1.3	5.48187
1.31	5.48253
1.32	5.47266
1.33	5.46542
1.34	5.4641
1.35	5.45654
1.36	5.45555
1.37	5.44437
1.38	5.4447
1.39	5.44141
1.4	5.43614
1.41	5.4266
1.42	5.42167
1.43	5.422
1.44	5.42266
1.45	5.41048
1.46	5.40555
1.47	5.40226
1.48	5.39502
1.49	5.39009
1.5	5.38647
1.51	5.38844
1.52	5.37858
1.53	5.37463
1.54	5.36213
1.55	5.36377
1.56	5.36048
1.57	5.35423
1.58	5.34897
1.59	5.34568
1.6	5.3391
1.61	5.3368
1.62	5.33351
1.63	5.3266
1.64	5.32298
1.65	5.31772
1.66	5.3164
1.67	5.31443
1.68	5.30555
1.69	5.30917
1.7	5.29996
1.71	5.29107
1.72	5.28745
1.73	5.2812
1.74	5.27594
1.75	5.26903
1.76	5.26574
1.77	5.25949
1.78	5.26509
1.79	5.25949
1.8	5.24995
1.81	5.24699
1.82	5.23844
1.83	5.23614
1.84	5.22429
1.85	5.22331
1.86	5.22035
1.87	5.22035
1.88	5.2141
1.89	5.20719
1.9	5.20357
1.91	5.19239
1.92	5.18712
1.93	5.1914
1.94	5.18153
1.95	5.18186
1.96	5.17166
1.97	5.16739
1.98	5.16344
1.99	5.1585
2	5.14831
2.01	5.14633
2.02	5.14238
2.03	5.13581
2.04	5.13548
2.05	5.13021
2.06	5.12265
2.07	5.11771
2.08	5.1187
2.09	5.11673
2.1	5.10982
2.11	5.1039
2.12	5.09732
2.13	5.0914
2.14	5.08778
2.15	5.09041
2.16	5.08317
2.17	5.07396
2.18	5.0687
2.19	5.06409
2.2	5.06311
2.21	5.06146
2.22	5.05291
2.23	5.04205
2.24	5.03876
2.25	5.04238
2.26	5.03416
2.27	5.03218
2.28	5.02922
2.29	5.02166
2.3	5.01606
2.31	5.01837
2.32	5.0131
2.33	5.00817
2.34	5.00258
2.35	4.99896
2.36	4.98514
2.37	4.98679
2.38	4.98317
2.39	4.97922
2.4	4.97429
2.41	4.96968
2.42	4.95916
2.43	4.96113
2.44	4.96047
2.45	4.94863
2.46	4.94435
2.47	4.93942
2.48	4.9358
2.49	4.92692
2.5	4.92593
2.51	4.92165
2.52	4.91836
2.53	4.9108
2.54	4.90389
2.55	4.90356
2.56	4.9006
2.57	4.89303
2.58	4.88514
2.59	4.88448
2.6	4.87461
2.61	4.86738
2.62	4.8631
2.63	4.86474
2.64	4.85323
2.65	4.85389
2.66	4.85455
2.67	4.8427
2.68	4.83876
2.69	4.83514
2.7	4.83514
2.71	4.82724
2.72	4.82066
2.73	4.81902
2.74	4.81836
2.75	4.80816
2.76	4.80389
2.77	4.79928
2.78	4.79797
2.79	4.79468
2.8	4.79007
2.81	4.78251
2.82	4.77428
2.83	4.77362
2.84	4.77165
2.85	4.76408
2.86	4.76441
2.87	4.76112
2.88	4.75487
2.89	4.75323
2.9	4.74829
2.91	4.74961
2.92	4.74106
2.93	4.73645
2.94	4.73283
2.95	4.72625
2.96	4.72362
2.97	4.72033
2.98	4.71145
2.99	4.70652
3	4.70553
3.01	4.69928
3.02	4.69763
3.03	4.68809
3.04	4.68941
3.05	4.68711
3.06	4.68217
3.07	4.67921
3.08	4.67395
3.09	4.66375
3.1	4.66244
3.11	4.66145
3.12	4.6529
3.13	4.65059
3.14	4.64072
3.15	4.63941
3.16	4.6348
3.17	4.62888
3.18	4.62625
3.19	4.61605
3.2	4.61211
3.21	4.61046
3.22	4.60158
3.23	4.59664
3.24	4.59533
3.25	4.59204
3.26	4.58809
3.27	4.58184
3.28	4.57329
3.29	4.58085
3.3	4.57
3.31	4.56605
3.32	4.56079
3.33	4.55618
3.34	4.54533
3.35	4.54763
3.36	4.54302
3.37	4.53842
3.38	4.52855
3.39	4.52954
3.4	4.53447
3.41	4.5246
3.42	4.51638
3.43	4.51539
3.44	4.51177
3.45	4.5098
3.46	4.50651
3.47	4.49467
3.48	4.495
3.49	4.49039
3.5	4.48677
3.51	4.49006
3.52	4.4825
3.53	4.4825
3.54	4.47131
3.55	4.46934
3.56	4.47065
3.57	4.47197
3.58	4.46111
3.59	4.45486
3.6	4.44993
3.61	4.44532
3.62	4.44236
3.63	4.44105
3.64	4.44072
3.65	4.43447
3.66	4.42592
3.67	4.42295
3.68	4.4223
3.69	4.42361
3.7	4.41736
3.71	4.41013
3.72	4.40486
3.73	4.40453
3.74	4.3973
3.75	4.38776
3.76	4.38841
3.77	4.38348
3.78	4.38315
3.79	4.37493
3.8	4.37361
3.81	4.36966
3.82	4.3667
3.83	4.36374
3.84	4.35749
3.85	4.34697
3.86	4.34532
3.87	4.34302
3.88	4.3394
3.89	4.33907
3.9	4.33512
3.91	4.32624
3.92	4.32032
3.93	4.31769
3.94	4.31736
3.95	4.31242
3.96	4.30782
3.97	4.30749
3.98	4.29762
3.99	4.29433
4	4.2894
4.01	4.29367
4.02	4.29071
4.03	4.28479
4.04	4.28183
4.05	4.27788
4.06	4.2713
4.07	4.26834
4.08	4.26736
4.09	4.26209
4.1	4.26209
4.11	4.2588
4.12	4.25387
4.13	4.25519
4.14	4.24828
4.15	4.24532
4.16	4.24301
4.17	4.23709
4.18	4.23446
4.19	4.22755
4.2	4.22887
4.21	4.22361
4.22	4.22097
4.23	4.21834
4.24	4.21505
4.25	4.21571
4.26	4.21275
4.27	4.20486
4.28	4.19729
4.29	4.19663
4.3	4.19926
4.31	4.19236
4.32	4.18643
4.33	4.18446
4.34	4.17985
4.35	4.17821
4.36	4.17031
4.37	4.16966
4.38	4.17196
4.39	4.16768
4.4	4.16275
4.41	4.15749
4.42	4.15551
4.43	4.1588
4.44	4.15716
4.45	4.14696
4.46	4.14202
4.47	4.14071
4.48	4.13939
4.49	4.13446
4.5	4.12952
4.51	4.1315
4.52	4.1292
4.53	4.12393
4.54	4.11604
4.55	4.11341
4.56	4.10847
4.57	4.10617
4.58	4.1088
4.59	4.10354
4.6	4.09959
4.61	4.10025
4.62	4.09334
4.63	4.09663
4.64	4.08972
4.65	4.08709
4.66	4.07985
4.67	4.0736
4.68	4.07492
4.69	4.07294
4.7	4.06998
4.71	4.06571
4.72	4.06406
4.73	4.05913
4.74	4.05617
4.75	4.05255
4.76	4.04531
4.77	4.04827
4.78	4.04103
4.79	4.04432
4.8	4.04038
4.81	4.03511
4.82	4.03478
4.83	4.03774
4.84	4.03347
4.85	4.02064
4.86	4.02097
4.87	4.01899
4.88	4.01899
4.89	4.01274
4.9	4.00781
4.91	4.00715
4.92	4.00748
4.93	4.00452
4.94	3.99926
4.95	3.99564
4.96	3.99465
4.97	3.98577
4.98	3.98412
4.99	3.98281
5	3.98314
5.01	3.98182
5.02	3.9759
5.03	3.97985
5.04	3.97491
5.05	3.97327
5.06	3.96702
5.07	3.96307
5.08	3.9634
5.09	3.95452
5.1	3.95452
5.11	3.95254
5.12	3.95353
5.13	3.9532
5.14	3.94958
5.15	3.94531
5.16	3.94136
5.17	3.94235
5.18	3.93741
5.19	3.94202
5.2	3.93116
5.21	3.93116
5.22	3.92952
5.23	3.92425
5.24	3.92031
5.25	3.92162
5.26	3.92425
5.27	3.91669
5.28	3.91406
5.29	3.91044
5.3	3.90748
5.31	3.90715
5.32	3.90156
5.33	3.9032
5.34	3.89892
5.35	3.89925
5.36	3.89202
5.37	3.89267
5.38	3.88478
5.39	3.88248
5.4	3.88346
5.41	3.87952
5.42	3.87754
5.43	3.87458
5.44	3.87491
5.45	3.8759
5.46	3.86932
5.47	3.87392
5.48	3.86307
5.49	3.86504
5.5	3.8578
5.51	3.86175
5.52	3.85978
5.53	3.8509
5.54	3.84925
5.55	3.84827
5.56	3.84432
5.57	3.84333
5.58	3.84103
5.59	3.83905
5.6	3.83905
5.61	3.83609
5.62	3.82886
5.63	3.83182
5.64	3.82458
5.65	3.82458
5.66	3.82524
5.67	3.818
5.68	3.81734
5.69	3.81734
5.7	3.81372
5.71	3.8078
5.72	3.80649
5.73	3.80813
5.74	3.8078
5.75	3.79859
5.76	3.80024
5.77	3.80155
5.78	3.79563
5.79	3.79465
5.8	3.78708
5.81	3.78807
5.82	3.79201
5.83	3.78543
5.84	3.78478
5.85	3.78214
5.86	3.78083
5.87	3.7805
5.88	3.77458
5.89	3.77721
5.9	3.7782
5.91	3.7726
5.92	3.7703
5.93	3.76603
5.94	3.76537
5.95	3.76307
5.96	3.75747
5.97	3.75978
5.98	3.75879
5.99	3.75649
6	3.75221
6.01	3.75287
6.02	3.75089
6.03	3.74892
6.04	3.7453
6.05	3.74333
6.06	3.73741
6.07	3.73412
6.08	3.7407
6.09	3.73445
6.1	3.73543
6.11	3.73445
6.12	3.73313
6.13	3.72491
6.14	3.72688
6.15	3.72359
6.16	3.72195
6.17	3.71997
6.18	3.71866
6.19	3.71866
6.2	3.71602
6.21	3.71537
6.22	3.71175
6.23	3.71076
6.24	3.71109
6.25	3.70912
6.26	3.70451
6.27	3.70056
6.28	3.69826
6.29	3.69958
6.3	3.69694
6.31	3.69925
6.32	3.69727
6.33	3.69069
6.34	3.69267
6.35	3.69037
6.36	3.68346
6.37	3.6805
6.38	3.67984
6.39	3.67951
6.4	3.68214
6.41	3.67819
6.42	3.6805
6.43	3.67359
6.44	3.668
6.45	3.67063
6.46	3.66602
6.47	3.668
6.48	3.66569
6.49	3.66438
6.5	3.65747
6.51	3.66043
6.52	3.65944
6.53	3.66372
6.54	3.66339
6.55	3.65681
6.56	3.65319
6.57	3.65451
6.58	3.64892
6.59	3.65484
6.6	3.65484
6.61	3.64859
6.62	3.65254
6.63	3.64563
6.64	3.64267
6.65	3.64135
6.66	3.64003
6.67	3.63806
6.68	3.63773
6.69	3.63477
6.7	3.6328
6.71	3.62819
6.72	3.62721
6.73	3.63346
6.74	3.62852
6.75	3.62556
6.76	3.62523
6.77	3.6226
6.78	3.61865
6.79	3.61898
6.8	3.6226
6.81	3.61471
6.82	3.61799
6.83	3.61668
6.84	3.61306
6.85	3.61043
6.86	3.61109
6.87	3.6101
6.88	3.60747
6.89	3.60878
6.9	3.60418
6.91	3.60188
6.92	3.60056
6.93	3.59892
6.94	3.60089
6.95	3.60056
6.96	3.59332
6.97	3.59793
6.98	3.59826
6.99	3.59266
7	3.5897
7.01	3.59003
7.02	3.58806
7.03	3.59003
7.04	3.58674
7.05	3.58214
7.06	3.5828
7.07	3.58444
7.08	3.58115
7.09	3.58082
7.1	3.57984
7.11	3.57951
7.12	3.57951
7.13	3.57655
7.14	3.57786
7.15	3.56931
7.16	3.56997
7.17	3.56898
7.18	3.56832
7.19	3.56997
7.2	3.56734
7.21	3.56799
7.22	3.56766
7.23	3.5624
7.24	3.56602
7.25	3.55977
7.26	3.56141
7.27	3.55385
7.28	3.55977
7.29	3.55878
7.3	3.55648
7.31	3.55516
7.32	3.55352
7.33	3.55155
7.34	3.55253
7.35	3.55286
7.36	3.54497
7.37	3.55089
7.38	3.5522
7.39	3.54069
7.4	3.54299
7.41	3.54036
7.42	3.54464
7.43	3.53904
7.44	3.53641
7.45	3.53444
7.46	3.53641
7.47	3.53477
7.48	3.53214
7.49	3.53312
7.5	3.53312
7.51	3.53279
7.52	3.52852
7.53	3.53082
7.54	3.52786
7.55	3.5249
7.56	3.52786
7.57	3.5272
7.58	3.52556
7.59	3.52293
7.6	3.52095
7.61	3.51668
7.62	3.51931
7.63	3.51766
7.64	3.51371
7.65	3.51075
7.66	3.51503
7.67	3.51371
7.68	3.51306
7.69	3.50714
7.7	3.50648
7.71	3.50878
7.72	3.5101
7.73	3.50944
7.74	3.5101
7.75	3.50779
7.76	3.50418
7.77	3.50187
7.78	3.50319
7.79	3.50121
7.8	3.49924
7.81	3.49727
7.82	3.4976
7.83	3.4976
7.84	3.50187
7.85	3.49398
7.86	3.4976
7.87	3.49036
7.88	3.49562
7.89	3.48806
7.9	3.49299
7.91	3.49825
7.92	3.48773
7.93	3.48641
7.94	3.48542
7.95	3.4874
7.96	3.4851
7.97	3.48542
7.98	3.47885
7.99	3.48148
8	3.47983
8.01	3.48016
8.02	3.48181
8.03	3.47819
8.04	3.47753
8.05	3.47227
8.06	3.47325
8.07	3.47885
8.08	3.47391
8.09	3.47687
8.1	3.4726
8.11	3.47128
8.12	3.47062
8.13	3.47029
8.14	3.47029
8.15	3.47029
8.16	3.46832
8.17	3.47128
8.18	3.47029
8.19	3.46569
8.2	3.46371
8.21	3.46602
8.22	3.46569
8.23	3.46306
8.24	3.46404
8.25	3.46174
8.26	3.46042
8.27	3.46306
8.28	3.45977
8.29	3.45746
8.3	3.45253
8.31	3.45417
8.32	3.45483
8.33	3.45878
8.34	3.45417
8.35	3.45286
8.36	3.4545
8.37	3.45187
8.38	3.45286
8.39	3.45055
8.4	3.44858
8.41	3.45187
8.42	3.45154
8.43	3.44792
8.44	3.44727
8.45	3.44792
8.46	3.44924
8.47	3.44299
8.48	3.442
8.49	3.44266
8.5	3.44167
8.51	3.44529
8.52	3.44167
8.53	3.44332
8.54	3.43805
8.55	3.43937
8.56	3.44134
8.57	3.43608
8.58	3.43509
8.59	3.43476
8.6	3.43542
8.61	3.43641
8.62	3.43575
8.63	3.43575
8.64	3.43542
8.65	3.43279
8.66	3.43016
8.67	3.43148
8.68	3.43411
8.69	3.43049
8.7	3.43016
8.71	3.42819
8.72	3.42884
8.73	3.43082
8.74	3.43213
8.75	3.42884
8.76	3.42884
8.77	3.4249
8.78	3.42391
8.79	3.42819
8.8	3.4272
8.81	3.42523
8.82	3.42358
8.83	3.42161
8.84	3.42128
8.85	3.42194
8.86	3.42029
8.87	3.42095
8.88	3.41865
8.89	3.41634
8.9	3.42161
8.91	3.42194
8.92	3.41371
8.93	3.41733
8.94	3.41766
8.95	3.41897
8.96	3.41634
8.97	3.4124
8.98	3.41503
8.99	3.41108
9	3.40944
9.01	3.41141
9.02	3.41371
9.03	3.40779
9.04	3.40746
9.05	3.41042
9.06	3.40976
9.07	3.40483
9.08	3.40779
9.09	3.40911
9.1	3.4045
9.11	3.4045
9.12	3.40615
9.13	3.4045
9.14	3.40516
9.15	3.39924
9.16	3.40516
9.17	3.40713
9.18	3.40022
9.19	3.39957
9.2	3.39628
9.21	3.40022
9.22	3.39726
9.23	3.40187
9.24	3.40417
9.25	3.40055
9.26	3.39891
9.27	3.40253
9.28	3.40022
9.29	3.39562
9.3	3.4022
9.31	3.39628
9.32	3.39529
9.33	3.39299
9.34	3.39693
9.35	3.3999
9.36	3.392
9.37	3.39957
9.38	3.39957
9.39	3.39496
9.4	3.39299
9.41	3.38904
9.42	3.39365
9.43	3.39233
9.44	3.39068
9.45	3.39397
9.46	3.39266
9.47	3.39233
9.48	3.38575
9.49	3.39101
9.5	3.3874
9.51	3.38312
9.52	3.38509
9.53	3.3874
9.54	3.38246
9.55	3.38213
9.56	3.3874
9.57	3.38641
9.58	3.38114
9.59	3.38279
9.6	3.38246
9.61	3.38016
9.62	3.37786
9.63	3.37818
9.64	3.38476
9.65	3.38345
9.66	3.37983
9.67	3.38049
9.68	3.37983
9.69	3.37457
9.7	3.37358
9.71	3.37489
9.72	3.37489
9.73	3.37687
9.74	3.37621
9.75	3.37161
9.76	3.36963
9.77	3.36963
9.78	3.37292
9.79	3.37193
9.8	3.37292
9.81	3.37226
9.82	3.36963
9.83	3.37424
9.84	3.37391
9.85	3.36897
9.86	3.36437
9.87	3.36667
9.88	3.36832
9.89	3.36832
9.9	3.36799
9.91	3.36371
9.92	3.36503
9.93	3.36733
9.94	3.36174
9.95	3.36503
9.96	3.36371
9.97	3.36634
9.98	3.36305
9.99	3.36305
10	3.36371
10.01	3.36634
10.02	3.36338
10.03	3.36305
10.04	3.36042
10.05	3.36634
10.06	3.36864
10.07	3.36108
10.08	3.3647
10.09	3.36207
10.1	3.35614
10.11	3.3591
10.12	3.36634
10.13	3.36174
10.14	3.35943
10.15	3.36075
10.16	3.35943
10.17	3.36272
10.18	3.36207
10.19	3.36141
10.2	3.36207
10.21	3.36009
10.22	3.36042
10.23	3.35647
10.24	3.3568
10.25	3.35384
10.26	3.35582
10.27	3.35713
10.28	3.35351
10.29	3.35088
10.3	3.35483
10.31	3.34989
10.32	3.35055
10.33	3.35022
10.34	3.35055
10.35	3.3545
10.36	3.35318
10.37	3.34989
10.38	3.35022
10.39	3.3466
10.4	3.34628
10.41	3.34496
10.42	3.34463
10.43	3.34233
10.44	3.34628
10.45	3.34496
10.46	3.34529
10.47	3.35187
10.48	3.34693
10.49	3.34167
10.5	3.34167
10.51	3.3397
10.52	3.34068
10.53	3.34397
10.54	3.34233
10.55	3.34003
10.56	3.33838
10.57	3.34134
10.58	3.33838
10.59	3.33838
10.6	3.34167
10.61	3.33937
10.62	3.34134
10.63	3.34266
10.64	3.34167
10.65	3.33937
10.66	3.33706
10.67	3.33674
10.68	3.33476
10.69	3.33937
10.7	3.34167
10.71	3.34068
10.72	3.33871
10.73	3.33674
10.74	3.33937
10.75	3.33772
10.76	3.33542
10.77	3.33575
10.78	3.33838
10.79	3.33772
10.8	3.33641
10.81	3.3397
10.82	3.33772
10.83	3.33739
10.84	3.33312
10.85	3.33246
10.86	3.3341
10.87	3.33706
10.88	3.33871
10.89	3.33345
10.9	3.33476
10.91	3.33345
10.92	3.33081
10.93	3.33377
10.94	3.33081
10.95	3.33114
10.96	3.33345
10.97	3.33476
10.98	3.33312
10.99	3.33147
11	3.3341
11.01	3.33213
11.02	3.33312
11.03	3.33377
11.04	3.32917
11.05	3.33443
11.06	3.32818
11.07	3.32489
11.08	3.33016
11.09	3.32917
11.1	3.32489
11.11	3.33016
11.12	3.33147
11.13	3.32785
11.14	3.32456
11.15	3.32226
11.16	3.3272
11.17	3.32884
11.18	3.32424
11.19	3.32456
11.2	3.32259
11.21	3.32522
11.22	3.32259
11.23	3.32358
11.24	3.32555
11.25	3.32424
11.26	3.32522
11.27	3.32062
11.28	3.32226
11.29	3.31996
11.3	3.32489
11.31	3.32325
11.32	3.31963
11.33	3.31831
11.34	3.32555
11.35	3.32193
11.36	3.31996
11.37	3.32029
11.38	3.32489
11.39	3.32456
11.4	3.32522
11.41	3.32489
11.42	3.3193
11.43	3.32095
11.44	3.3193
11.45	3.32259
11.46	3.31864
11.47	3.3193
11.48	3.31667
11.49	3.31996
11.5	3.31831
11.51	3.32193
11.52	3.31798
11.53	3.32095
11.54	3.31535
11.55	3.31798
11.56	3.31996
11.57	3.31864
11.58	3.31437
11.59	3.31733
11.6	3.31568
11.61	3.31798
11.62	3.3193
11.63	3.31601
11.64	3.31601
11.65	3.31305
11.66	3.31502
11.67	3.31766
11.68	3.31502
11.69	3.31601
11.7	3.31173
11.71	3.31371
11.72	3.31371
11.73	3.31108
11.74	3.31404
11.75	3.3193
11.76	3.31305
11.77	3.31733
11.78	3.31667
11.79	3.31305
11.8	3.31141
11.81	3.31141
11.82	3.31535
11.83	3.3147
11.84	3.31371
11.85	3.31601
11.86	3.31272
11.87	3.31371
11.88	3.31371
11.89	3.30976
11.9	3.31437
11.91	3.31239
11.92	3.3147
11.93	3.31042
11.94	3.31042
11.95	3.31305
11.96	3.31042
11.97	3.30877
11.98	3.30943
11.99	3.30713
12	3.30746
12.01	3.30713
12.02	3.30779
12.03	3.31206
12.04	3.31173
12.05	3.31108
12.06	3.31173
12.07	3.30713
12.08	3.31075
12.09	3.3091
12.1	3.3091
12.11	3.31108
12.12	3.31141
12.13	3.30713
12.14	3.30746
12.15	3.3068
12.16	3.30647
12.17	3.31042
12.18	3.30351
12.19	3.30713
12.2	3.30318
12.21	3.30252
12.22	3.30548
12.23	3.30516
12.24	3.3045
12.25	3.30351
12.26	3.30516
12.27	3.3068
12.28	3.30877
12.29	3.30614
12.3	3.29891
12.31	3.30351
12.32	3.29989
12.33	3.30746
12.34	3.30088
12.35	3.30746
12.36	3.30384
12.37	3.30219
12.38	3.30285
12.39	3.30581
12.4	3.30187
12.41	3.30285
12.42	3.30351
12.43	3.30285
12.44	3.30285
12.45	3.29726
12.46	3.29989
12.47	3.30088
12.48	3.30351
12.49	3.30483
12.5	3.30088
12.51	3.29858
12.52	3.29825
12.53	3.30318
12.54	3.30285
12.55	3.30088
12.56	3.29594
12.57	3.30219
12.58	3.29693
12.59	3.29463
12.6	3.29825
12.61	3.29923
12.62	3.29726
12.63	3.29726
12.64	3.29956
12.65	3.29891
12.66	3.29529
12.67	3.29726
12.68	3.29496
12.69	3.292
12.7	3.29529
12.71	3.29792
12.72	3.29759
12.73	3.29693
12.74	3.29331
12.75	3.29496
12.76	3.29101
12.77	3.29233
12.78	3.29463
12.79	3.29397
12.8	3.29529
12.81	3.29726
12.82	3.29298
12.83	3.29298
12.84	3.29562
12.85	3.29298
12.86	3.29266
12.87	3.29167
12.88	3.29167
12.89	3.29298
12.9	3.29266
12.91	3.2966
12.92	3.29298
12.93	3.29167
12.94	3.29134
12.95	3.29562
12.96	3.29496
12.97	3.28937
12.98	3.29167
12.99	3.29266
13	3.29134
13.01	3.29496
13.02	3.29167
13.03	3.29266
13.04	3.28739
13.05	3.28805
13.06	3.28805
13.07	3.28937
13.08	3.29134
13.09	3.29068
13.1	3.29331
13.11	3.29233
13.12	3.28608
13.13	3.28805
13.14	3.28673
13.15	3.28509
13.16	3.29298
13.17	3.29134
13.18	3.29002
13.19	3.29101
13.2	3.28838
13.21	3.29233
13.22	3.2864
13.23	3.29035
13.24	3.28838
13.25	3.28937
13.26	3.28542
13.27	3.28443
13.28	3.29101
13.29	3.28344
13.3	3.28772
13.31	3.28739
13.32	3.28871
13.33	3.28443
13.34	3.292
13.35	3.29035
13.36	3.28542
13.37	3.28312
13.38	3.28509
13.39	3.28673
13.4	3.28871
13.41	3.29266
13.42	3.29002
13.43	3.292
13.44	3.28443
13.45	3.28509
13.46	3.28838
13.47	3.28838
13.48	3.28937
13.49	3.28542
13.5	3.28542
13.51	3.28871
13.52	3.28443
13.53	3.2864
13.54	3.28969
13.55	3.28114
13.56	3.28279
13.57	3.28706
13.58	3.2864
13.59	3.2864
13.6	3.28279
13.61	3.27818
13.62	3.28048
13.63	3.28575
13.64	3.2818
13.65	3.28081
13.66	3.28246
13.67	3.27851
13.68	3.27719
13.69	3.28015
13.7	3.28114
13.71	3.27983
13.72	3.28279
13.73	3.27851
13.74	3.27752
13.75	3.27785
13.76	3.28312
13.77	3.28081
13.78	3.28377
13.79	3.28246
13.8	3.28312
13.81	3.28344
13.82	3.27884
13.83	3.28048
13.84	3.28673
13.85	3.27884
13.86	3.2795
13.87	3.2818
13.88	3.27917
13.89	3.28147
13.9	3.28147
13.91	3.27621
13.92	3.27752
13.93	3.28443
13.94	3.28344
13.95	3.28377
13.96	3.27917
13.97	3.27884
13.98	3.27917
13.99	3.27818
14	3.27785
14.01	3.27522
14.02	3.28015
14.03	3.27654
14.04	3.27983
14.05	3.27752
14.06	3.27292
14.07	3.27423
14.08	3.27687
14.09	3.28279
14.1	3.27785
14.11	3.27983
14.12	3.27621
14.13	3.27752
14.14	3.27687
14.15	3.27522
14.16	3.27917
14.17	3.27983
14.18	3.27818
14.19	3.27621
14.2	3.27818
14.21	3.27818
14.22	3.27785
14.23	3.27522
14.24	3.27687
14.25	3.27489
14.26	3.27785
14.27	3.27752
14.28	3.27851
14.29	3.27752
14.3	3.27489
14.31	3.27489
14.32	3.27687
14.33	3.27259
14.34	3.27687
14.35	3.27752
14.36	3.27687
14.37	3.27917
14.38	3.27654
14.39	3.27687
14.4	3.27752
14.41	3.27983
14.42	3.27588
14.43	3.27588
14.44	3.27752
14.45	3.28114
14.46	3.27983
14.47	3.27785
14.48	3.27884
14.49	3.27983
14.5	3.27489
14.51	3.27555
14.52	3.27917
14.53	3.27917
14.54	3.27423
14.55	3.27423
14.56	3.27456
14.57	3.26996
14.58	3.27654
14.59	3.27456
14.6	3.27785
14.61	3.27358
14.62	3.2716
14.63	3.27061
14.64	3.27522
14.65	3.27193
14.66	3.27423
14.67	3.27127
14.68	3.26502
14.69	3.27127
14.7	3.2693
14.71	3.27259
14.72	3.2716
14.73	3.26667
14.74	3.26864
14.75	3.26864
14.76	3.26864
14.77	3.26634
14.78	3.26765
14.79	3.26601
14.8	3.26963
14.81	3.26338
14.82	3.26864
14.83	3.26733
14.84	3.26765
14.85	3.2693
14.86	3.26765
14.87	3.26469
14.88	3.26568
14.89	3.27029
14.9	3.27029
14.91	3.26765
14.92	3.26667
14.93	3.26798
14.94	3.2693
14.95	3.27029
14.96	3.26502
14.97	3.26502
14.98	3.26502
14.99	3.26502
15	3.26765
15.01	3.26502
15.02	3.26667
15.03	3.26206
15.04	3.26502
15.05	3.26502
15.06	3.26634
15.07	3.26535
15.08	3.26502
15.09	3.26272
15.1	3.26173
15.11	3.267
15.12	3.26667
15.13	3.26305
15.14	3.26206
15.15	3.26272
15.16	3.2614
15.17	3.26634
15.18	3.26535
15.19	3.26535
15.2	3.26338
15.21	3.26305
15.22	3.26601
15.23	3.26864
15.24	3.26798
15.25	3.26305
15.26	3.26404
15.27	3.26371
15.28	3.26667
15.29	3.26469
15.3	3.267
15.31	3.26436
15.32	3.26733
15.33	3.26436
15.34	3.26469
15.35	3.26765
15.36	3.26436
15.37	3.26404
15.38	3.26601
15.39	3.26733
15.4	3.26502
15.41	3.26568
15.42	3.26206
15.43	3.26239
15.44	3.26206
15.45	3.26108
15.46	3.26404
15.47	3.26305
15.48	3.26601
15.49	3.26502
15.5	3.26502
15.51	3.26502
15.52	3.26436
15.53	3.26206
15.54	3.26272
15.55	3.26469
15.56	3.26469
15.57	3.26634
15.58	3.26568
15.59	3.26009
15.6	3.26469
15.61	3.26634
15.62	3.26075
15.63	3.26305
15.64	3.26371
15.65	3.26404
15.66	3.26338
15.67	3.26042
15.68	3.26206
15.69	3.25779
15.7	3.25877
15.71	3.26239
15.72	3.26601
15.73	3.26338
15.74	3.2614
15.75	3.26009
15.76	3.26108
15.77	3.26009
15.78	3.26568
15.79	3.2614
15.8	3.26075
15.81	3.26272
15.82	3.25943
15.83	3.25779
15.84	3.26108
15.85	3.26075
15.86	3.26239
15.87	3.26272
15.88	3.26371
15.89	3.26009
15.9	3.25713
15.91	3.25417
15.92	3.25844
15.93	3.25581
15.94	3.25943
15.95	3.25976
15.96	3.26042
15.97	3.25482
15.98	3.25614
15.99	3.2568
16	3.25746
16.01	3.25647
16.02	3.25844
16.03	3.25844
16.04	3.26108
16.05	3.25976
16.06	3.25713
16.07	3.25614
16.08	3.25713
16.09	3.25614
16.1	3.25647
16.11	3.25713
16.12	3.25515
16.13	3.25811
16.14	3.25943
16.15	3.25713
16.16	3.2568
16.17	3.25779
16.18	3.25746
16.19	3.26108
16.2	3.25943
16.21	3.25581
16.22	3.25548
16.23	3.25647
16.24	3.25417
16.25	3.25976
16.26	3.26173
16.27	3.25746
16.28	3.2545
16.29	3.25614
16.3	3.26042
16.31	3.26404
16.32	3.25811
16.33	3.26239
16.34	3.26075
16.35	3.25943
16.36	3.25943
16.37	3.25976
16.38	3.25515
16.39	3.25647
16.4	3.26404
16.41	3.26042
16.42	3.2545
16.43	3.26239
16.44	3.26239
16.45	3.25943
16.46	3.25844
16.47	3.26338
16.48	3.25877
16.49	3.25976
16.5	3.25976
16.51	3.26108
16.52	3.25844
16.53	3.25779
16.54	3.25647
16.55	3.25482
16.56	3.25482
16.57	3.25746
16.58	3.25647
16.59	3.25844
16.6	3.25548
16.61	3.26108
16.62	3.25417
16.63	3.25351
16.64	3.25154
16.65	3.25417
16.66	3.25614
16.67	3.25384
16.68	3.25055
16.69	3.25384
16.7	3.25351
16.71	3.25581
16.72	3.25713
16.73	3.25581
16.74	3.25022
16.75	3.25515
16.76	3.2545
16.77	3.25417
16.78	3.25351
16.79	3.25384
16.8	3.25384
16.81	3.25482
16.82	3.24923
16.83	3.2489
16.84	3.24693
16.85	3.25351
16.86	3.25121
16.87	3.25351
16.88	3.25581
16.89	3.25351
16.9	3.25417
16.91	3.25022
16.92	3.2545
16.93	3.25417
16.94	3.24627
16.95	3.25121
16.96	3.24759
16.97	3.25022
16.98	3.25154
16.99	3.24989
17	3.24989
17.01	3.24792
17.02	3.25088
17.03	3.24857
17.04	3.25154
17.05	3.25055
17.06	3.25088
17.07	3.24956
17.08	3.24759
17.09	3.24726
17.1	3.25121
17.11	3.2568
17.12	3.2545
17.13	3.24792
17.14	3.24726
17.15	3.24496
17.16	3.24265
17.17	3.24792
17.18	3.24693
17.19	3.24529
17.2	3.24693
17.21	3.24759
17.22	3.25154
17.23	3.24923
17.24	3.25351
17.25	3.25351
17.26	3.2466
17.27	3.24726
17.28	3.24792
17.29	3.24496
17.3	3.25154
17.31	3.25252
17.32	3.25285
17.33	3.25088
17.34	3.24561
17.35	3.24857
17.36	3.25121
17.37	3.25055
17.38	3.24627
17.39	3.24956
17.4	3.24825
17.41	3.24825
17.42	3.24857
17.43	3.24726
17.44	3.25154
17.45	3.24726
17.46	3.2466
17.47	3.24594
17.48	3.25055
17.49	3.24956
17.5	3.24759
17.51	3.24923
17.52	3.24627
17.53	3.24265
17.54	3.24463
17.55	3.24726
17.56	3.24331
17.57	3.25055
17.58	3.24265
17.59	3.24232
17.6	3.24594
17.61	3.24792
17.62	3.2443
17.63	3.24923
17.64	3.24594
17.65	3.24265
17.66	3.24529
17.67	3.24594
17.68	3.24627
17.69	3.24529
17.7	3.24594
17.71	3.24989
17.72	3.2466
17.73	3.24792
17.74	3.24627
17.75	3.2466
17.76	3.24134
17.77	3.242
17.78	3.24759
17.79	3.25022
17.8	3.24857
17.81	3.2466
17.82	3.24627
17.83	3.24364
17.84	3.24693
17.85	3.24759
17.86	3.25154
17.87	3.24561
17.88	3.24265
17.89	3.242
17.9	3.24397
17.91	3.24792
17.92	3.24529
17.93	3.24627
17.94	3.24364
17.95	3.24068
17.96	3.24364
17.97	3.24167
17.98	3.24397
17.99	3.24068
18	3.242
18.01	3.24594
18.02	3.24463
18.03	3.24364
18.04	3.24529
18.05	3.24101
18.06	3.24265
18.07	3.24035
18.08	3.2443
18.09	3.24693
18.1	3.24529
18.11	3.24134
18.12	3.23903
18.13	3.24002
18.14	3.24298
18.15	3.24529
18.16	3.24627
18.17	3.24167
18.18	3.23805
18.19	3.23969
18.2	3.24298
18.21	3.242
18.22	3.24529
18.23	3.24035
18.24	3.24397
18.25	3.24035
18.26	3.24364
18.27	3.2466
18.28	3.24529
18.29	3.24759
18.3	3.24463
18.31	3.2443
18.32	3.24265
18.33	3.2443
18.34	3.24167
18.35	3.24265
18.36	3.2466
18.37	3.24265
18.38	3.24232
18.39	3.24594
18.4	3.24265
18.41	3.24331
18.42	3.24331
18.43	3.24561
18.44	3.24265
18.45	3.24331
18.46	3.24693
18.47	3.24331
18.48	3.23936
18.49	3.24101
18.5	3.24298
18.51	3.2443
18.52	3.24792
18.53	3.2443
18.54	3.242
18.55	3.24035
18.56	3.24364
18.57	3.24561
18.58	3.23871
18.59	3.2443
18.6	3.24068
18.61	3.24529
18.62	3.2443
18.63	3.24035
18.64	3.24101
18.65	3.23805
18.66	3.24134
18.67	3.24002
18.68	3.23838
18.69	3.24364
18.7	3.24627
18.71	3.24232
18.72	3.23739
18.73	3.24068
18.74	3.23772
18.75	3.24068
18.76	3.23739
18.77	3.24364
18.78	3.23969
18.79	3.24167
18.8	3.24068
18.81	3.23542
18.82	3.23377
18.83	3.23278
18.84	3.23805
18.85	3.23706
18.86	3.24101
18.87	3.24035
18.88	3.23673
18.89	3.2364
18.9	3.23509
18.91	3.23607
18.92	3.23706
18.93	3.23509
18.94	3.23772
18.95	3.23739
18.96	3.23673
18.97	3.23772
18.98	3.23903
18.99	3.24561
19	3.24298
19.01	3.23871
19.02	3.23278
19.03	3.23246
19.04	3.23542
19.05	3.23871
19.06	3.2364
19.07	3.23673
19.08	3.23542
19.09	3.23805
19.1	3.23772
19.11	3.23673
19.12	3.23673
19.13	3.24035
19.14	3.23542
19.15	3.23509
19.16	3.23344
19.17	3.23278
19.18	3.23903
19.19	3.23969
19.2	3.2364
19.21	3.2364
19.22	3.23443
19.23	3.23739
19.24	3.23607
19.25	3.23805
19.26	3.23805
19.27	3.23509
19.28	3.23673
19.29	3.2364
19.3	3.23575
19.31	3.23805
19.32	3.23936
19.33	3.24594
19.34	3.24134
19.35	3.23805
19.36	3.23542
19.37	3.2341
19.38	3.2364
19.39	3.23772
19.4	3.23607
19.41	3.2364
19.42	3.23542
19.43	3.2341
19.44	3.23509
19.45	3.23114
19.46	3.23575
19.47	3.23903
19.48	3.23772
19.49	3.23114
19.5	3.23805
19.51	3.23575
19.52	3.23542
19.53	3.23607
19.54	3.23706
19.55	3.23278
19.56	3.23542
19.57	3.23739
19.58	3.23607
19.59	3.23706
19.6	3.23706
19.61	3.23903
19.62	3.23673
19.63	3.23772
19.64	3.23838
19.65	3.23772
19.66	3.23443
19.67	3.2364
19.68	3.2341
19.69	3.2318
19.7	3.23278
19.71	3.23377
19.72	3.23344
19.73	3.23311
19.74	3.23311
19.75	3.23048
19.76	3.2364
19.77	3.23344
19.78	3.23739
19.79	3.23443
19.8	3.23278
19.81	3.2295
19.82	3.23344
19.83	3.22851
19.84	3.23311
19.85	3.23311
19.86	3.23147
19.87	3.23443
19.88	3.23081
19.89	3.22818
19.9	3.22917
19.91	3.23377
19.92	3.23476
19.93	3.23311
19.94	3.23509
19.95	3.23739
19.96	3.23575
19.97	3.2364
19.98	3.23311
19.99	3.23311
20	3.22851
20.01	3.22818
20.02	3.2341
20.03	3.2318
20.04	3.22982
20.05	3.22917
20.06	3.23114
20.07	3.23015
20.08	3.22917
20.09	3.23213
20.1	3.23246
20.11	3.23509
20.12	3.22851
20.13	3.23114
20.14	3.23278
20.15	3.22917
20.16	3.2341
20.17	3.23509
20.18	3.22884
20.19	3.23443
20.2	3.23443
20.21	3.23542
20.22	3.22917
20.23	3.2295
20.24	3.2318
20.25	3.23311
20.26	3.22982
20.27	3.23476
20.28	3.2341
20.29	3.2318
20.3	3.23542
20.31	3.23246
20.32	3.23246
20.33	3.23377
20.34	3.23048
20.35	3.22752
20.36	3.23311
20.37	3.23213
20.38	3.23542
20.39	3.23443
20.4	3.23114
20.41	3.2318
20.42	3.23311
20.43	3.23246
20.44	3.23377
20.45	3.2295
20.46	3.23509
20.47	3.23015
20.48	3.23344
20.49	3.2318
20.5	3.22653
20.51	3.23114
20.52	3.23344
20.53	3.23311
20.54	3.2318
20.55	3.23015
20.56	3.23015
20.57	3.22884
20.58	3.22851
20.59	3.2341
20.6	3.23311
20.61	3.22917
20.62	3.22884
20.63	3.22818
20.64	3.22917
20.65	3.22884
20.66	3.22752
20.67	3.22785
20.68	3.22818
20.69	3.23081
20.7	3.2318
20.71	3.23213
20.72	3.22621
20.73	3.22588
20.74	3.22489
20.75	3.22719
20.76	3.22653
20.77	3.22785
20.78	3.23015
20.79	3.22982
20.8	3.23081
20.81	3.22851
20.82	3.22818
20.83	3.23015
20.84	3.23048
20.85	3.23015
20.86	3.23246
20.87	3.22818
20.88	3.22917
20.89	3.22884
20.9	3.22818
20.91	3.22686
20.92	3.22456
20.93	3.22982
20.94	3.22555
20.95	3.23213
20.96	3.2318
20.97	3.23081
20.98	3.23048
20.99	3.22917
21	3.22752
21.01	3.22653
21.02	3.22752
21.03	3.23015
21.04	3.22555
21.05	3.22522
21.06	3.22489
21.07	3.23278
21.08	3.22982
21.09	3.22851
21.1	3.22785
21.11	3.23147
21.12	3.22884
21.13	3.22752
21.14	3.22752
21.15	3.22357
21.16	3.22686
21.17	3.22621
21.18	3.22292
21.19	3.22489
21.2	3.22226
21.21	3.22851
21.22	3.22752
21.23	3.22555
21.24	3.22522
21.25	3.2295
21.26	3.23114
21.27	3.22818
21.28	3.22259
21.29	3.22785
21.3	3.23114
21.31	3.22851
21.32	3.23081
21.33	3.22884
21.34	3.22522
21.35	3.22785
21.36	3.22621
21.37	3.22752
21.38	3.22522
21.39	3.22423
21.4	3.22818
21.41	3.23048
21.42	3.2239
21.43	3.22489
21.44	3.22653
21.45	3.22226
21.46	3.2239
21.47	3.22982
21.48	3.22292
21.49	3.22489
21.5	3.22653
21.51	3.22851
21.52	3.22719
21.53	3.22752
21.54	3.23048
21.55	3.22653
21.56	3.22555
21.57	3.22423
21.58	3.22719
21.59	3.22489
21.6	3.2239
21.61	3.22522
21.62	3.22555
21.63	3.22357
21.64	3.22884
21.65	3.22719
21.66	3.22259
21.67	3.22785
21.68	3.22489
21.69	3.22851
21.7	3.22851
21.71	3.22489
21.72	3.2216
21.73	3.22752
21.74	3.22653
21.75	3.22785
21.76	3.22719
21.77	3.22686
21.78	3.22456
21.79	3.22818
21.8	3.2341
21.81	3.22884
21.82	3.2295
21.83	3.22653
21.84	3.22456
21.85	3.22588
21.86	3.22719
21.87	3.22653
21.88	3.2239
21.89	3.22719
21.9	3.22456
21.91	3.22621
21.92	3.23015
21.93	3.2295
21.94	3.22884
21.95	3.22588
21.96	3.22324
21.97	3.22292
21.98	3.22653
21.99	3.22522
22	3.22226
22.01	3.22752
22.02	3.22489
22.03	3.22456
22.04	3.22884
22.05	3.22456
22.06	3.22324
22.07	3.22259
22.08	3.22226
22.09	3.22621
22.1	3.21963
22.11	3.22259
22.12	3.22193
22.13	3.22292
22.14	3.22357
22.15	3.21864
22.16	3.22423
22.17	3.22555
22.18	3.22423
22.19	3.22259
22.2	3.22489
22.21	3.22719
22.22	3.22522
22.23	3.2239
22.24	3.22555
22.25	3.22653
22.26	3.22752
22.27	3.22621
22.28	3.22982
22.29	3.22588
22.3	3.22357
22.31	3.22292
22.32	3.22094
22.33	3.22653
22.34	3.22357
22.35	3.2239
22.36	3.21996
22.37	3.22193
22.38	3.2239
22.39	3.21831
22.4	3.22226
22.41	3.22555
22.42	3.22653
22.43	3.2216
22.44	3.22193
22.45	3.21305
22.46	3.22028
22.47	3.22259
22.48	3.22456
22.49	3.22719
22.5	3.22259
22.51	3.22193
22.52	3.21831
22.53	3.22555
22.54	3.22818
22.55	3.22324
22.56	3.22292
22.57	3.21831
22.58	3.21996
22.59	3.22653
22.6	3.2295
22.61	3.22456
22.62	3.2216
22.63	3.2193
22.64	3.21963
22.65	3.22094
22.66	3.21765
22.67	3.21831
22.68	3.22061
22.69	3.22061
22.7	3.22061
22.71	3.22028
22.72	3.2193
22.73	3.21864
22.74	3.22127
22.75	3.22193
22.76	3.2216
22.77	3.22094
22.78	3.21864
22.79	3.21864
22.8	3.22028
22.81	3.22061
22.82	3.22061
22.83	3.21963
22.84	3.21864
22.85	3.21699
22.86	3.21699
22.87	3.21864
22.88	3.21996
22.89	3.22028
22.9	3.21963
22.91	3.21963
22.92	3.22028
22.93	3.21765
22.94	3.22292
22.95	3.21963
22.96	3.21897
22.97	3.21732
22.98	3.22292
22.99	3.22193
23	3.21568
23.01	3.21634
23.02	3.2193
23.03	3.21667
23.04	3.21798
23.05	3.21765
23.06	3.21831
23.07	3.22127
23.08	3.21831
23.09	3.21765
23.1	3.21699
23.11	3.21996
23.12	3.22193
23.13	3.21568
23.14	3.21864
23.15	3.21667
23.16	3.21963
23.17	3.21765
23.18	3.21798
23.19	3.21765
23.2	3.21601
23.21	3.21831
23.22	3.21897
23.23	3.22028
23.24	3.22028
23.25	3.22259
23.26	3.22094
23.27	3.21732
23.28	3.21436
23.29	3.21765
23.3	3.21732
23.31	3.21831
23.32	3.21568
23.33	3.21798
23.34	3.21699
23.35	3.21765
23.36	3.22094
23.37	3.21996
23.38	3.21798
23.39	3.21535
23.4	3.21798
23.41	3.21239
23.42	3.2193
23.43	3.21864
23.44	3.21831
23.45	3.21502
23.46	3.21765
23.47	3.21371
23.48	3.21699
23.49	3.21699
23.5	3.21634
23.51	3.21436
23.52	3.21469
23.53	3.21699
23.54	3.21765
23.55	3.2193
23.56	3.21699
23.57	3.21009
23.58	3.21436
23.59	3.21535
23.6	3.21765
23.61	3.21864
23.62	3.21897
23.63	3.21469
23.64	3.21469
23.65	3.21765
23.66	3.21601
23.67	3.21765
23.68	3.21568
23.69	3.21831
23.7	3.21502
23.71	3.21535
23.72	3.21897
23.73	3.22127
23.74	3.21601
23.75	3.21732
23.76	3.21798
23.77	3.21963
23.78	3.21699
23.79	3.22094
23.8	3.21765
23.81	3.21798
23.82	3.21864
23.83	3.21864
23.84	3.21667
23.85	3.21601
23.86	3.21371
23.87	3.21601
23.88	3.21502
23.89	3.21535
23.9	3.21469
23.91	3.21634
23.92	3.21206
23.93	3.20943
23.94	3.21535
23.95	3.21535
23.96	3.21732
23.97	3.21667
23.98	3.21732
23.99	3.21535
24	3.21568
24.01	3.21732
24.02	3.21535
24.03	3.22028
24.04	3.21502
24.05	3.21272
24.06	3.21338
24.07	3.21436
24.08	3.21831
24.09	3.21699
24.1	3.21502
24.11	3.21107
24.12	3.21403
24.13	3.21403
24.14	3.21634
24.15	3.21699
24.16	3.21864
24.17	3.21996
24.18	3.21107
24.19	3.21699
24.2	3.21239
24.21	3.21107
24.22	3.21272
24.23	3.21732
24.24	3.21798
24.25	3.21436
24.26	3.22028
24.27	3.21436
24.28	3.21568
24.29	3.21732
24.3	3.2114
24.31	3.21732
24.32	3.21535
24.33	3.21568
24.34	3.21371
24.35	3.21732
24.36	3.21272
24.37	3.2114
24.38	3.21535
24.39	3.21568
24.4	3.21009
24.41	3.21239
24.42	3.21305
24.43	3.21338
24.44	3.21338
24.45	3.21732
24.46	3.21601
24.47	3.21469
24.48	3.21535
24.49	3.20778
24.5	3.21436
24.51	3.21338
24.52	3.21502
24.53	3.21568
24.54	3.21568
24.55	3.21963
24.56	3.21732
24.57	3.21371
24.58	3.21469
24.59	3.21699
24.6	3.21699
24.61	3.21667
24.62	3.2091
24.63	3.21568
24.64	3.21107
24.65	3.21272
24.66	3.21272
24.67	3.21206
24.68	3.21568
24.69	3.21732
24.7	3.21502
24.71	3.21403
24.72	3.21469
24.73	3.21436
24.74	3.21173
24.75	3.21206
24.76	3.21305
24.77	3.21667
24.78	3.21732
24.79	3.21732
24.8	3.21206
24.81	3.21436
24.82	3.21173
24.83	3.21831
24.84	3.21535
24.85	3.21305
24.86	3.21502
24.87	3.21535
24.88	3.21864
24.89	3.21831
24.9	3.21699
24.91	3.21699
24.92	3.21667
24.93	3.21469
24.94	3.21239
24.95	3.21371
24.96	3.21436
24.97	3.21074
24.98	3.21371
24.99	3.21272
25	3.21436
25.01	3.20713
25.02	3.21502
25.03	3.21305
25.04	3.21009
25.05	3.21042
25.06	3.21403
25.07	3.21074
25.08	3.20877
25.09	3.21107
25.1	3.21173
25.11	3.21009
25.12	3.20647
25.13	3.20877
25.14	3.20482
25.15	3.20976
25.16	3.21107
25.17	3.21107
25.18	3.20811
25.19	3.20745
25.2	3.21074
25.21	3.20647
25.22	3.20778
25.23	3.20745
25.24	3.20745
25.25	3.21173
25.26	3.20614
25.27	3.20252
25.28	3.20844
25.29	3.20943
25.3	3.21107
25.31	3.20778
25.32	3.20943
25.33	3.21009
25.34	3.20581
25.35	3.20614
25.36	3.21074
25.37	3.20713
25.38	3.21436
25.39	3.20581
25.4	3.20844
25.41	3.20976
25.42	3.20647
25.43	3.2091
25.44	3.20778
25.45	3.20482
25.46	3.20548
25.47	3.21009
25.48	3.20877
25.49	3.2068
25.5	3.20482
25.51	3.2068
25.52	3.2068
25.53	3.20976
25.54	3.20943
25.55	3.20713
25.56	3.21173
25.57	3.2114
25.58	3.20647
25.59	3.20614
25.6	3.20647
25.61	3.20351
25.62	3.20614
25.63	3.20778
25.64	3.20877
25.65	3.21305
25.66	3.21074
25.67	3.20548
25.68	3.20548
25.69	3.20482
25.7	3.2114
25.71	3.20745
25.72	3.21107
25.73	3.20548
25.74	3.20713
25.75	3.20449
25.76	3.20449
25.77	3.20811
25.78	3.21107
25.79	3.20548
25.8	3.20713
25.81	3.20614
25.82	3.20482
25.83	3.20482
25.84	3.20515
25.85	3.20252
25.86	3.20614
25.87	3.20713
25.88	3.21009
25.89	3.21074
25.9	3.20811
25.91	3.21206
25.92	3.20943
25.93	3.20515
25.94	3.20614
25.95	3.20515
25.96	3.20943
25.97	3.20449
25.98	3.20515
25.99	3.20614
26	3.20778
26.01	3.20943
26.02	3.21042
26.03	3.20581
26.04	3.20548
26.05	3.20219
26.06	3.20778
26.07	3.20844
26.08	3.20745
26.09	3.20647
26.1	3.20482
26.11	3.20713
26.12	3.21206
26.13	3.20976
26.14	3.20943
26.15	3.20482
26.16	3.20417
26.17	3.2068
26.18	3.20417
26.19	3.20548
26.2	3.20614
26.21	3.20186
26.22	3.20647
26.23	3.20482
26.24	3.20252
26.25	3.20384
26.26	3.20285
26.27	3.20548
26.28	3.20482
26.29	3.20745
26.3	3.2091
26.31	3.20877
26.32	3.20943
26.33	3.20417
26.34	3.20384
26.35	3.20581
26.36	3.20614
26.37	3.20647
26.38	3.20614
26.39	3.2012
26.4	3.20713
26.41	3.20877
26.42	3.20581
26.43	3.20417
26.44	3.20482
26.45	3.20449
26.46	3.20614
26.47	3.20976
26.48	3.20318
26.49	3.20844
26.5	3.20482
26.51	3.20384
26.52	3.20482
26.53	3.20811
26.54	3.20515
26.55	3.2012
26.56	3.20647
26.57	3.2091
26.58	3.20351
26.59	3.20417
26.6	3.20713
26.61	3.20515
26.62	3.20252
26.63	3.20515
26.64	3.20811
26.65	3.20976
26.66	3.20252
26.67	3.20186
26.68	3.20285
26.69	3.20318
26.7	3.20745
26.71	3.20647
26.72	3.20614
26.73	3.20449
26.74	3.20515
26.75	3.20252
26.76	3.20778
26.77	3.20647
26.78	3.20778
26.79	3.20449
26.8	3.20285
26.81	3.20318
26.82	3.20548
26.83	3.20811
26.84	3.20614
26.85	3.20318
26.86	3.2012
26.87	3.20219
26.88	3.19824
26.89	3.20252
26.9	3.20581
26.91	3.20614
26.92	3.21074
26.93	3.20614
26.94	3.21206
26.95	3.20614
26.96	3.20614
26.97	3.21568
26.98	3.21074
26.99	3.20581
27	3.20417
27.01	3.2068
27.02	3.20548
27.03	3.21074
27.04	3.20713
27.05	3.20713
27.06	3.20778
27.07	3.21042
27.08	3.21239
27.09	3.21107
27.1	3.20482
27.11	3.20745
27.12	3.21173
27.13	3.20614
27.14	3.20186
27.15	3.20417
27.16	3.20482
27.17	3.20778
27.18	3.20647
27.19	3.20647
27.2	3.20581
27.21	3.20384
27.22	3.20285
27.23	3.20252
27.24	3.20581
27.25	3.20482
27.26	3.20482
27.27	3.20548
27.28	3.20088
27.29	3.20417
27.3	3.1989
27.31	3.20219
27.32	3.20088
27.33	3.20713
27.34	3.20153
27.35	3.20318
27.36	3.20285
27.37	3.20515
27.38	3.20384
27.39	3.20153
27.4	3.20745
27.41	3.19726
27.42	3.1966
27.43	3.20219
27.44	3.20811
27.45	3.20515
27.46	3.19857
27.47	3.19594
27.48	3.19693
27.49	3.20548
27.5	3.20318
27.51	3.20581
27.52	3.20351
27.53	3.19824
27.54	3.20055
27.55	3.20351
27.56	3.21173
27.57	3.20614
27.58	3.20252
27.59	3.19627
27.6	3.20022
27.61	3.20482
27.62	3.20713
27.63	3.20811
27.64	3.19792
27.65	3.20614
27.66	3.20713
27.67	3.2091
27.68	3.20976
27.69	3.20713
27.7	3.20581
27.71	3.20252
27.72	3.20449
27.73	3.20548
27.74	3.20614
27.75	3.20647
27.76	3.20252
27.77	3.2068
27.78	3.21042
27.79	3.20384
27.8	3.20153
27.81	3.2012
27.82	3.20811
27.83	3.21371
27.84	3.21042
27.85	3.20976
27.86	3.20647
27.87	3.20351
27.88	3.20252
27.89	3.20351
27.9	3.20976
27.91	3.20417
27.92	3.20581
27.93	3.20482
27.94	3.20153
27.95	3.20088
27.96	3.20055
27.97	3.20219
27.98	3.20055
27.99	3.20515
28	3.20285
28.01	3.20153
28.02	3.19956
28.03	3.1989
28.04	3.19989
28.05	3.19495
28.06	3.20153
28.07	3.19824
28.08	3.19627
28.09	3.19463
28.1	3.19923
28.11	3.19956
28.12	3.20482
28.13	3.20219
28.14	3.19759
28.15	3.1966
28.16	3.20055
28.17	3.19956
28.18	3.20153
28.19	3.19824
28.2	3.19594
28.21	3.19561
28.22	3.19857
28.23	3.20186
28.24	3.20252
28.25	3.19989
28.26	3.19463
28.27	3.19726
28.28	3.19857
28.29	3.20055
28.3	3.19561
28.31	3.20055
28.32	3.19792
28.33	3.19561
28.34	3.19726
28.35	3.19594
28.36	3.19923
28.37	3.20055
28.38	3.20351
28.39	3.20055
28.4	3.19857
28.41	3.19463
28.42	3.19265
28.43	3.19594
28.44	3.1943
28.45	3.19989
28.46	3.19857
28.47	3.20153
28.48	3.1966
28.49	3.19824
28.5	3.19627
28.51	3.20055
28.52	3.1989
28.53	3.20482
28.54	3.1989
28.55	3.19759
28.56	3.19726
28.57	3.19627
28.58	3.19627
28.59	3.19792
28.6	3.19792
28.61	3.19956
28.62	3.20153
28.63	3.1989
28.64	3.20219
28.65	3.19726
28.66	3.19792
28.67	3.19166
28.68	3.19463
28.69	3.19792
28.7	3.20252
28.71	3.19824
28.72	3.19594
28.73	3.19857
28.74	3.19824
28.75	3.20153
28.76	3.19956
28.77	3.19627
28.78	3.19824
28.79	3.1966
28.8	3.19989
28.81	3.19989
28.82	3.20449
28.83	3.19989
28.84	3.19397
28.85	3.19397
28.86	3.1966
28.87	3.20548
28.88	3.20285
28.89	3.20384
28.9	3.19561
28.91	3.1943
28.92	3.19726
28.93	3.20153
28.94	3.20778
28.95	3.20417
28.96	3.19726
28.97	3.19726
28.98	3.1989
28.99	3.20285
29	3.20153
29.01	3.19792
29.02	3.1966
29.03	3.19331
29.04	3.19989
29.05	3.19759
29.06	3.19528
29.07	3.19726
29.08	3.19792
29.09	3.19857
29.1	3.19397
29.11	3.19726
29.12	3.19693
29.13	3.19693
29.14	3.1966
29.15	3.19594
29.16	3.19857
29.17	3.19397
29.18	3.19364
29.19	3.19364
29.2	3.19759
29.21	3.19561
29.22	3.19989
29.23	3.19726
29.24	3.1989
29.25	3.19495
29.26	3.19331
29.27	3.19463
29.28	3.19693
29.29	3.19857
29.3	3.19528
29.31	3.19693
29.32	3.19726
29.33	3.19298
29.34	3.19232
29.35	3.19923
29.36	3.19923
29.37	3.19989
29.38	3.20088
29.39	3.19989
29.4	3.1966
29.41	3.19923
29.42	3.19923
29.43	3.19759
29.44	3.19857
29.45	3.19594
29.46	3.19824
29.47	3.19989
29.48	3.19857
29.49	3.19956
29.5	3.20318
29.51	3.1989
29.52	3.20022
29.53	3.20285
29.54	3.19923
29.55	3.19298
29.56	3.19463
29.57	3.19495
29.58	3.19627
29.59	3.19397
29.6	3.19463
29.61	3.19693
29.62	3.19232
29.63	3.19397
29.64	3.19627
29.65	3.19594
29.66	3.19693
29.67	3.19627
29.68	3.19824
29.69	3.19134
29.7	3.1966
29.71	3.19594
29.72	3.19561
29.73	3.19463
29.74	3.1943
29.75	3.19397
29.76	3.19627
29.77	3.19693
29.78	3.19561
29.79	3.19627
29.8	3.19989
29.81	3.19463
29.82	3.20088
29.83	3.20088
29.84	3.19923
29.85	3.19265
29.86	3.19857
29.87	3.19364
29.88	3.19824
29.89	3.19923
29.9	3.1943
29.91	3.20022
29.92	3.19068
29.93	3.19857
29.94	3.19463
29.95	3.1943
29.96	3.19726
29.97	3.19726
29.98	3.1989
29.99	3.19495
30	3.19364
