"BIO-KINE ASCII FILE"
"_COMMENT"	"MOS-500 Spectrometer"
"_COMMENT"	"Kinetics measurement"
"_COMMENT"	"Y Unit : Volt,  X Unit : s"
"_COMMENT"	"Excitation wavelength : 380 nm"
"_COMMENT"	"Fentes bandwidth =  1 nm"
"_COMMENT"	"HV= 625V"
"_COMMENT"	"Timebase  1 =  .01 s   3001 pts"
"_SFM"	"SFM-400 /S  Advanced mode"
"_SFM"	"Ratio : S1: 2.5, S2: 0, S3: 0, S4: 1"
"_SFM"	"Content : S1: , S2: , S3: , S4:"
"_SFM"	"Concentration : S1: , S2: , S3: , S4:"
"_SFM"	"Total volume : 209 µl  Flow : 3.5 mL/s"
"_SFM"	"Acquisition start :  10 ms before stop"
"_SFM"	"cuve=FC-15, s1=10 ml , s2=10 ml , s3=10 ml , s4=1.9 ml"
"_UNITX"	"s"
"_UNITY"	"Volt"
"_DELTAX"	0
"_DATA"
1e-300	6.19899
0.01	6.67467
0.02	6.81579
0.03	6.82072
0.04	6.82697
0.05	6.82237
0.06	6.82927
0.07	6.84934
0.08	6.85197
0.09	6.84474
0.1	6.84243
0.11	6.84901
0.12	6.85921
0.13	6.85789
0.14	6.85263
0.15	6.85263
0.16	6.84803
0.17	6.86217
0.18	6.84342
0.19	6.84079
0.2	6.84868
0.21	6.84934
0.22	6.84605
0.23	6.84079
0.24	6.83651
0.25	6.83816
0.26	6.83092
0.27	6.82697
0.28	6.82796
0.29	6.81941
0.3	6.81875
0.31	6.81809
0.32	6.80822
0.33	6.79342
0.34	6.7921
0.35	6.79375
0.36	6.79835
0.37	6.79539
0.38	6.78618
0.39	6.77927
0.4	6.78454
0.41	6.77927
0.42	6.77269
0.43	6.76677
0.44	6.76217
0.45	6.76414
0.46	6.75855
0.47	6.75098
0.48	6.75065
0.49	6.74013
0.5	6.7398
0.51	6.73914
0.52	6.72796
0.53	6.71579
0.54	6.71875
0.55	6.71809
0.56	6.71085
0.57	6.71019
0.58	6.7069
0.59	6.68585
0.6	6.69144
0.61	6.68848
0.62	6.67499
0.63	6.67203
0.64	6.67236
0.65	6.67796
0.66	6.6671
0.67	6.65953
0.68	6.6546
0.69	6.64901
0.7	6.6398
0.71	6.64374
0.72	6.63157
0.73	6.62894
0.74	6.62565
0.75	6.63026
0.76	6.61841
0.77	6.61052
0.78	6.6046
0.79	6.60262
0.8	6.59802
0.81	6.58979
0.82	6.58848
0.83	6.58322
0.84	6.57598
0.85	6.57072
0.86	6.56315
0.87	6.55394
0.88	6.54407
0.89	6.54835
0.9	6.54539
0.91	6.54637
0.92	6.53749
0.93	6.52433
0.94	6.52104
0.95	6.51874
0.96	6.52269
0.97	6.50887
0.98	6.5046
0.99	6.49736
1	6.49111
1.01	6.48683
1.02	6.48091
1.03	6.47828
1.04	6.46808
1.05	6.47137
1.06	6.46249
1.07	6.45821
1.08	6.45426
1.09	6.44999
1.1	6.45032
1.11	6.43815
1.12	6.43321
1.13	6.42466
1.14	6.42367
1.15	6.42071
1.16	6.41051
1.17	6.39966
1.18	6.40361
1.19	6.39703
1.2	6.38157
1.21	6.38551
1.22	6.3717
1.23	6.36512
1.24	6.36578
1.25	6.35854
1.26	6.35985
1.27	6.35328
1.28	6.3411
1.29	6.33584
1.3	6.33255
1.31	6.32564
1.32	6.33124
1.33	6.33485
1.34	6.324
1.35	6.30492
1.36	6.30492
1.37	6.30492
1.38	6.28781
1.39	6.27893
1.4	6.27827
1.41	6.28025
1.42	6.27005
1.43	6.26314
1.44	6.25426
1.45	6.25492
1.46	6.24801
1.47	6.24209
1.48	6.23419
1.49	6.23518
1.5	6.23353
1.51	6.22893
1.52	6.22761
1.53	6.22367
1.54	6.2036
1.55	6.20656
1.56	6.20623
1.57	6.20097
1.58	6.19801
1.59	6.18452
1.6	6.17498
1.61	6.17038
1.62	6.17366
1.63	6.16643
1.64	6.1582
1.65	6.15327
1.66	6.14636
1.67	6.15393
1.68	6.13748
1.69	6.1388
1.7	6.12498
1.71	6.12498
1.72	6.11478
1.73	6.11116
1.74	6.10623
1.75	6.09735
1.76	6.08847
1.77	6.09241
1.78	6.08287
1.79	6.0809
1.8	6.07136
1.81	6.05689
1.82	6.06017
1.83	6.05656
1.84	6.048
1.85	6.0411
1.86	6.03781
1.87	6.02958
1.88	6.02827
1.89	6.01642
1.9	6.00458
1.91	6.00557
1.92	6.00261
1.93	6.00096
1.94	5.98978
1.95	5.99076
1.96	5.99011
1.97	5.97859
1.98	5.96576
1.99	5.97201
2	5.96215
2.01	5.95557
2.02	5.948
2.03	5.94372
2.04	5.94142
2.05	5.93122
2.06	5.92925
2.07	5.93484
2.08	5.91774
2.09	5.91313
2.1	5.90458
2.11	5.898
2.12	5.89306
2.13	5.8957
2.14	5.89866
2.15	5.89603
2.16	5.88089
2.17	5.87431
2.18	5.86543
2.19	5.86445
2.2	5.86313
2.21	5.85852
2.22	5.85063
2.23	5.84438
2.24	5.84471
2.25	5.83912
2.26	5.83813
2.27	5.8299
2.28	5.82859
2.29	5.82135
2.3	5.81444
2.31	5.80392
2.32	5.79865
2.33	5.79207
2.34	5.79635
2.35	5.78747
2.36	5.77629
2.37	5.77267
2.38	5.77168
2.39	5.76214
2.4	5.75852
2.41	5.76017
2.42	5.7549
2.43	5.75457
2.44	5.74142
2.45	5.73615
2.46	5.72793
2.47	5.72267
2.48	5.72497
2.49	5.70786
2.5	5.70622
2.51	5.70523
2.52	5.69141
2.53	5.70062
2.54	5.68681
2.55	5.68155
2.56	5.67924
2.57	5.67102
2.58	5.66674
2.59	5.65918
2.6	5.64997
2.61	5.64043
2.62	5.64602
2.63	5.63812
2.64	5.6401
2.65	5.6276
2.66	5.61608
2.67	5.61477
2.68	5.61246
2.69	5.60852
2.7	5.60194
2.71	5.60358
2.72	5.58154
2.73	5.58417
2.74	5.58121
2.75	5.56937
2.76	5.56806
2.77	5.56312
2.78	5.55325
2.79	5.54569
2.8	5.54207
2.81	5.54569
2.82	5.54174
2.83	5.53121
2.84	5.52595
2.85	5.53154
2.86	5.52562
2.87	5.50884
2.88	5.51476
2.89	5.50193
2.9	5.497
2.91	5.49503
2.92	5.49009
2.93	5.48713
2.94	5.48351
2.95	5.4641
2.96	5.45654
2.97	5.46608
2.98	5.46443
2.99	5.46345
3	5.45489
3.01	5.44831
3.02	5.4368
3.03	5.43483
3.04	5.43516
3.05	5.43581
3.06	5.42463
3.07	5.41772
3.08	5.40752
3.09	5.40818
3.1	5.40917
3.11	5.39469
3.12	5.39568
3.13	5.39009
3.14	5.37825
3.15	5.38516
3.16	5.37397
3.17	5.37759
3.18	5.36311
3.19	5.36443
3.2	5.35555
3.21	5.35029
3.22	5.34436
3.23	5.33088
3.24	5.33219
3.25	5.32923
3.26	5.32923
3.27	5.31805
3.28	5.31344
3.29	5.31147
3.3	5.30719
3.31	5.3039
3.32	5.29338
3.33	5.29831
3.34	5.29272
3.35	5.2868
3.36	5.27923
3.37	5.27298
3.38	5.26574
3.39	5.26903
3.4	5.25719
3.41	5.24864
3.42	5.24436
3.43	5.24601
3.44	5.24436
3.45	5.24173
3.46	5.23614
3.47	5.2368
3.48	5.23087
3.49	5.22298
3.5	5.21673
3.51	5.21278
3.52	5.20785
3.53	5.1937
3.54	5.19864
3.55	5.19403
3.56	5.19107
3.57	5.18712
3.58	5.18383
3.59	5.17758
3.6	5.17265
3.61	5.17067
3.62	5.16015
3.63	5.15883
3.64	5.15423
3.65	5.1437
3.66	5.1437
3.67	5.14238
3.68	5.13021
3.69	5.13219
3.7	5.12791
3.71	5.12298
3.72	5.11179
3.73	5.10752
3.74	5.1062
3.75	5.10455
3.76	5.10159
3.77	5.09304
3.78	5.09205
3.79	5.08383
3.8	5.09074
3.81	5.08416
3.82	5.07528
3.83	5.06376
3.84	5.06541
3.85	5.06113
3.86	5.0562
3.87	5.0562
3.88	5.05324
3.89	5.04139
3.9	5.03975
3.91	5.03975
3.92	5.03153
3.93	5.03087
3.94	5.02528
3.95	5.01903
3.96	5.01508
3.97	5.01343
3.98	5.0062
3.99	4.99468
4	5.00192
4.01	5.00225
4.02	4.99929
4.03	4.98876
4.04	4.9835
4.05	4.98054
4.06	4.97166
4.07	4.9756
4.08	4.9733
4.09	4.96409
4.1	4.95784
4.11	4.95948
4.12	4.95587
4.13	4.9483
4.14	4.93547
4.15	4.93975
4.16	4.93679
4.17	4.93415
4.18	4.92363
4.19	4.92725
4.2	4.92297
4.21	4.91244
4.22	4.90652
4.23	4.90718
4.24	4.90652
4.25	4.89632
4.26	4.88975
4.27	4.89534
4.28	4.88744
4.29	4.88218
4.3	4.88021
4.31	4.87757
4.32	4.86771
4.33	4.8631
4.34	4.86968
4.35	4.86244
4.36	4.8552
4.37	4.84928
4.38	4.83876
4.39	4.84007
4.4	4.84172
4.41	4.83613
4.42	4.82922
4.43	4.82724
4.44	4.82395
4.45	4.81277
4.46	4.81606
4.47	4.80783
4.48	4.80224
4.49	4.79994
4.5	4.80389
4.51	4.80126
4.52	4.7927
4.53	4.78908
4.54	4.79007
4.55	4.78382
4.56	4.78645
4.57	4.78119
4.58	4.77625
4.59	4.77264
4.6	4.77231
4.61	4.77
4.62	4.76277
4.63	4.75849
4.64	4.75257
4.65	4.75027
4.66	4.74599
4.67	4.74139
4.68	4.73842
4.69	4.7302
4.7	4.73579
4.71	4.7302
4.72	4.73152
4.73	4.72329
4.74	4.72198
4.75	4.7177
4.76	4.72231
4.77	4.70586
4.78	4.70224
4.79	4.70027
4.8	4.70125
4.81	4.69829
4.82	4.69237
4.83	4.68974
4.84	4.69369
4.85	4.67921
4.86	4.67757
4.87	4.67329
4.88	4.67033
4.89	4.66079
4.9	4.66605
4.91	4.65553
4.92	4.65092
4.93	4.65224
4.94	4.64994
4.95	4.64533
4.96	4.64599
4.97	4.64336
4.98	4.63776
4.99	4.63053
5	4.62526
5.01	4.63151
5.02	4.62757
5.03	4.61408
5.04	4.62
5.05	4.61112
5.06	4.60849
5.07	4.60421
5.08	4.60191
5.09	4.60322
5.1	4.60257
5.11	4.59138
5.12	4.5848
5.13	4.58513
5.14	4.58513
5.15	4.5825
5.16	4.58349
5.17	4.5848
5.18	4.57033
5.19	4.56408
5.2	4.56375
5.21	4.56868
5.22	4.56737
5.23	4.55585
5.24	4.55125
5.25	4.54862
5.26	4.54796
5.27	4.54138
5.28	4.54895
5.29	4.54401
5.3	4.53085
5.31	4.53118
5.32	4.53612
5.33	4.5325
5.34	4.52098
5.35	4.51671
5.36	4.52197
5.37	4.51605
5.38	4.51144
5.39	4.50914
5.4	4.50585
5.41	4.50486
5.42	4.50125
5.43	4.49006
5.44	4.49072
5.45	4.49204
5.46	4.48677
5.47	4.48579
5.48	4.47954
5.49	4.48414
5.5	4.47657
5.51	4.47756
5.52	4.47657
5.53	4.47559
5.54	4.4644
5.55	4.46638
5.56	4.46243
5.57	4.46671
5.58	4.46342
5.59	4.45684
5.6	4.45618
5.61	4.45059
5.62	4.4473
5.63	4.44763
5.64	4.44467
5.65	4.44631
5.66	4.44039
5.67	4.4394
5.68	4.42953
5.69	4.43282
5.7	4.43513
5.71	4.4292
5.72	4.42164
5.73	4.41901
5.74	4.41703
5.75	4.41769
5.76	4.41736
5.77	4.41078
5.78	4.4098
5.79	4.40881
5.8	4.40585
5.81	4.4019
5.82	4.40091
5.83	4.39203
5.84	4.39664
5.85	4.39072
5.86	4.39401
5.87	4.38874
5.88	4.39072
5.89	4.38282
5.9	4.38381
5.91	4.37295
5.92	4.37657
5.93	4.3746
5.94	4.36736
5.95	4.35749
5.96	4.36506
5.97	4.36012
5.98	4.35683
5.99	4.35124
6	4.35091
6.01	4.34433
6.02	4.34894
6.03	4.34368
6.04	4.33249
6.05	4.33381
6.06	4.32953
6.07	4.3394
6.08	4.33216
6.09	4.32493
6.1	4.31539
6.11	4.3144
6.12	4.31835
6.13	4.31999
6.14	4.31802
6.15	4.31637
6.16	4.30848
6.17	4.31045
6.18	4.29598
6.19	4.30321
6.2	4.30025
6.21	4.294
6.22	4.29269
6.23	4.29696
6.24	4.28644
6.25	4.28742
6.26	4.28907
6.27	4.29137
6.28	4.28808
6.29	4.28578
6.3	4.29137
6.31	4.28874
6.32	4.28381
6.33	4.27427
6.34	4.27624
6.35	4.27098
6.36	4.27459
6.37	4.26736
6.38	4.27262
6.39	4.27098
6.4	4.26275
6.41	4.25848
6.42	4.26144
6.43	4.25979
6.44	4.25058
6.45	4.2565
6.46	4.25321
6.47	4.24861
6.48	4.25453
6.49	4.24828
6.5	4.24696
6.51	4.25519
6.52	4.2417
6.53	4.23512
6.54	4.23841
6.55	4.23644
6.56	4.23249
6.57	4.22492
6.58	4.22624
6.59	4.22196
6.6	4.2167
6.61	4.21637
6.62	4.21637
6.63	4.21736
6.64	4.21143
6.65	4.20847
6.66	4.20946
6.67	4.2088
6.68	4.20025
6.69	4.19564
6.7	4.19663
6.71	4.19795
6.72	4.19334
6.73	4.19696
6.74	4.19334
6.75	4.1917
6.76	4.19005
6.77	4.17887
6.78	4.17393
6.79	4.17492
6.8	4.17328
6.81	4.17525
6.82	4.1713
6.83	4.17525
6.84	4.169
6.85	4.16801
6.86	4.169
6.87	4.16308
6.88	4.15617
6.89	4.16012
6.9	4.15518
6.91	4.15518
6.92	4.15156
6.93	4.14729
6.94	4.14762
6.95	4.14564
6.96	4.15058
6.97	4.14268
6.98	4.14499
6.99	4.1486
7	4.14235
7.01	4.15288
7.02	4.14301
7.03	4.13874
7.04	4.13413
7.05	4.12854
7.06	4.13446
7.07	4.13545
7.08	4.13216
7.09	4.12985
7.1	4.12952
7.11	4.12097
7.12	4.11637
7.13	4.12492
7.14	4.12163
7.15	4.12327
7.16	4.12492
7.17	4.12295
7.18	4.11571
7.19	4.11209
7.2	4.11571
7.21	4.1111
7.22	4.11966
7.23	4.11702
7.24	4.11209
7.25	4.11077
7.26	4.11308
7.27	4.10913
7.28	4.10452
7.29	4.09794
7.3	4.09564
7.31	4.10156
7.32	4.09531
7.33	4.09531
7.34	4.09893
7.35	4.094
7.36	4.09334
7.37	4.08808
7.38	4.08183
7.39	4.08347
7.4	4.07854
7.41	4.07919
7.42	4.07689
7.43	4.07294
7.44	4.07196
7.45	4.07393
7.46	4.07426
7.47	4.06834
7.48	4.06965
7.49	4.06702
7.5	4.05946
7.51	4.06242
7.52	4.05979
7.53	4.05485
7.54	4.05321
7.55	4.05485
7.56	4.05617
7.57	4.05518
7.58	4.05156
7.59	4.05025
7.6	4.05485
7.61	4.0565
7.62	4.04959
7.63	4.04564
7.64	4.04531
7.65	4.05057
7.66	4.04235
7.67	4.03742
7.68	4.03807
7.69	4.03972
7.7	4.04202
7.71	4.04005
7.72	4.03314
7.73	4.03807
7.74	4.03248
7.75	4.03413
7.76	4.03347
7.77	4.02294
7.78	4.02853
7.79	4.02853
7.8	4.02557
7.81	4.02557
7.82	4.01307
7.83	4.01768
7.84	4.01373
7.85	4.01965
7.86	4.01998
7.87	4.01636
7.88	4.01472
7.89	4.01998
7.9	4.01932
7.91	4.01044
7.92	4.0111
7.93	4.01373
7.94	4.00814
7.95	4.0111
7.96	4.00781
7.97	4.0009
7.98	4.00123
7.99	3.99663
8	3.99432
8.01	3.99926
8.02	3.9986
8.03	3.99235
8.04	3.99531
8.05	3.99728
8.06	3.99893
8.07	3.98939
8.08	3.99169
8.09	3.98281
8.1	3.98314
8.11	3.98018
8.12	3.98215
8.13	3.9782
8.14	3.97294
8.15	3.9736
8.16	3.97985
8.17	3.9782
8.18	3.98182
8.19	3.98051
8.2	3.97097
8.21	3.97162
8.22	3.96833
8.23	3.97623
8.24	3.96768
8.25	3.97393
8.26	3.98018
8.27	3.97031
8.28	3.96505
8.29	3.96965
8.3	3.97031
8.31	3.96176
8.32	3.96373
8.33	3.96011
8.34	3.9634
8.35	3.96077
8.36	3.96176
8.37	3.95814
8.38	3.95616
8.39	3.9588
8.4	3.96044
8.41	3.95156
8.42	3.95715
8.43	3.95123
8.44	3.95024
8.45	3.95419
8.46	3.95353
8.47	3.94991
8.48	3.94498
8.49	3.94531
8.5	3.94432
8.51	3.94268
8.52	3.94761
8.53	3.9407
8.54	3.94103
8.55	3.94301
8.56	3.94037
8.57	3.93412
8.58	3.93577
8.59	3.94531
8.6	3.93577
8.61	3.93939
8.62	3.93379
8.63	3.93807
8.64	3.93478
8.65	3.92787
8.66	3.9282
8.67	3.93083
8.68	3.92985
8.69	3.92557
8.7	3.92656
8.71	3.93182
8.72	3.92919
8.73	3.91965
8.74	3.92261
8.75	3.92162
8.76	3.91965
8.77	3.91998
8.78	3.91669
8.79	3.91406
8.8	3.91735
8.81	3.91274
8.82	3.90748
8.83	3.90846
8.84	3.91077
8.85	3.91274
8.86	3.90978
8.87	3.9055
8.88	3.90781
8.89	3.90452
8.9	3.90912
8.91	3.90156
8.92	3.89728
8.93	3.89827
8.94	3.89498
8.95	3.90353
8.96	3.89892
8.97	3.89728
8.98	3.89892
8.99	3.89662
9	3.89136
9.01	3.8907
9.02	3.89169
9.03	3.89136
9.04	3.89103
9.05	3.89564
9.06	3.89202
9.07	3.89564
9.08	3.88478
9.09	3.88544
9.1	3.88873
9.11	3.893
9.12	3.88379
9.13	3.8861
9.14	3.89267
9.15	3.88741
9.16	3.88511
9.17	3.88017
9.18	3.88412
9.19	3.8782
9.2	3.88544
9.21	3.87754
9.22	3.88116
9.23	3.87886
9.24	3.88083
9.25	3.88116
9.26	3.87327
9.27	3.87623
9.28	3.87919
9.29	3.88248
9.3	3.8759
9.31	3.88116
9.32	3.8782
9.33	3.87524
9.34	3.87524
9.35	3.87787
9.36	3.8759
9.37	3.87359
9.38	3.87096
9.39	3.87063
9.4	3.86734
9.41	3.86241
9.42	3.868
9.43	3.87261
9.44	3.86669
9.45	3.86767
9.46	3.8634
9.47	3.85813
9.48	3.86866
9.49	3.86899
9.5	3.86438
9.51	3.86734
9.52	3.86406
9.53	3.8634
9.54	3.85945
9.55	3.85879
9.56	3.85484
9.57	3.85682
9.58	3.85846
9.59	3.85188
9.6	3.85419
9.61	3.85452
9.62	3.85682
9.63	3.85353
9.64	3.84728
9.65	3.85419
9.66	3.85188
9.67	3.84498
9.68	3.8453
9.69	3.85057
9.7	3.85254
9.71	3.83971
9.72	3.843
9.73	3.84399
9.74	3.84169
9.75	3.84432
9.76	3.84465
9.77	3.84498
9.78	3.83807
9.79	3.83182
9.8	3.8328
9.81	3.84333
9.82	3.84103
9.83	3.84004
9.84	3.84103
9.85	3.83642
9.86	3.83708
9.87	3.82984
9.88	3.83412
9.89	3.83379
9.9	3.83116
9.91	3.83609
9.92	3.83576
9.93	3.83346
9.94	3.83116
9.95	3.83544
9.96	3.8282
9.97	3.82853
9.98	3.83149
9.99	3.83149
10	3.83017
10.01	3.83017
10.02	3.82886
10.03	3.8305
10.04	3.83971
10.05	3.82787
10.06	3.83379
10.07	3.83445
10.08	3.82655
10.09	3.82984
10.1	3.8259
10.11	3.82787
10.12	3.82984
10.13	3.82491
10.14	3.83017
10.15	3.8305
10.16	3.82359
10.17	3.82063
10.18	3.82326
10.19	3.82392
10.2	3.83116
10.21	3.82392
10.22	3.81701
10.23	3.81932
10.24	3.81471
10.25	3.81932
10.26	3.81669
10.27	3.81241
10.28	3.80846
10.29	3.8078
10.3	3.8055
10.31	3.80813
10.32	3.81932
10.33	3.81603
10.34	3.81076
10.35	3.81669
10.36	3.80747
10.37	3.80682
10.38	3.79596
10.39	3.80846
10.4	3.81044
10.41	3.80747
10.42	3.80945
10.43	3.80484
10.44	3.80155
10.45	3.79201
10.46	3.80254
10.47	3.81076
10.48	3.80846
10.49	3.79958
10.5	3.80057
10.51	3.80616
10.52	3.80583
10.53	3.80221
10.54	3.79728
10.55	3.79826
10.56	3.80386
10.57	3.8078
10.58	3.8055
10.59	3.80188
10.6	3.79201
10.61	3.79267
10.62	3.80517
10.63	3.79761
10.64	3.79991
10.65	3.79201
10.66	3.79826
10.67	3.79497
10.68	3.78905
10.69	3.79695
10.7	3.79201
10.71	3.79629
10.72	3.79103
10.73	3.79333
10.74	3.78971
10.75	3.79234
10.76	3.79103
10.77	3.78642
10.78	3.78872
10.79	3.79004
10.8	3.79037
10.81	3.78708
10.82	3.79004
10.83	3.78576
10.84	3.78675
10.85	3.78445
10.86	3.78214
10.87	3.79037
10.88	3.78938
10.89	3.78445
10.9	3.77984
10.91	3.77853
10.92	3.77491
10.93	3.78576
10.94	3.78247
10.95	3.78511
10.96	3.77853
10.97	3.7805
10.98	3.77721
10.99	3.77458
11	3.77853
11.01	3.77392
11.02	3.77359
11.03	3.77063
11.04	3.76997
11.05	3.77162
11.06	3.76997
11.07	3.76964
11.08	3.7782
11.09	3.77622
11.1	3.77392
11.11	3.76833
11.12	3.76767
11.13	3.77162
11.14	3.76142
11.15	3.76043
11.16	3.77096
11.17	3.76668
11.18	3.76734
11.19	3.76635
11.2	3.76372
11.21	3.76537
11.22	3.77096
11.23	3.77458
11.24	3.77392
11.25	3.77228
11.26	3.76405
11.27	3.7657
11.28	3.76471
11.29	3.768
11.3	3.77063
11.31	3.77129
11.32	3.77063
11.33	3.76866
11.34	3.76635
11.35	3.77129
11.36	3.76701
11.37	3.77326
11.38	3.77195
11.39	3.7726
11.4	3.77557
11.41	3.76701
11.42	3.76438
11.43	3.7703
11.44	3.77063
11.45	3.76504
11.46	3.7703
11.47	3.76964
11.48	3.77096
11.49	3.77524
11.5	3.77359
11.51	3.77162
11.52	3.77129
11.53	3.76142
11.54	3.76339
11.55	3.76471
11.56	3.7657
11.57	3.76274
11.58	3.76537
11.59	3.76372
11.6	3.76076
11.61	3.76438
11.62	3.76701
11.63	3.76274
11.64	3.76405
11.65	3.76076
11.66	3.75188
11.67	3.7532
11.68	3.75385
11.69	3.75484
11.7	3.75517
11.71	3.75385
11.72	3.76307
11.73	3.75616
11.74	3.75846
11.75	3.74662
11.76	3.75188
11.77	3.7476
11.78	3.74464
11.79	3.74958
11.8	3.75714
11.81	3.75089
11.82	3.74234
11.83	3.74135
11.84	3.74629
11.85	3.74497
11.86	3.75089
11.87	3.75287
11.88	3.74662
11.89	3.75418
11.9	3.74826
11.91	3.7476
11.92	3.74859
11.93	3.75122
11.94	3.74793
11.95	3.74793
11.96	3.74464
11.97	3.74629
11.98	3.74431
11.99	3.73938
12	3.74135
12.01	3.74958
12.02	3.74925
12.03	3.74662
12.04	3.74728
12.05	3.74201
12.06	3.7453
12.07	3.74267
12.08	3.74267
12.09	3.74135
12.1	3.74135
12.11	3.74991
12.12	3.74596
12.13	3.73971
12.14	3.74037
12.15	3.74431
12.16	3.74991
12.17	3.74826
12.18	3.74267
12.19	3.74497
12.2	3.74399
12.21	3.74497
12.22	3.74399
12.23	3.74102
12.24	3.73938
12.25	3.74431
12.26	3.7453
12.27	3.74135
12.28	3.74168
12.29	3.73609
12.3	3.73708
12.31	3.73445
12.32	3.7407
12.33	3.73576
12.34	3.7328
12.35	3.73806
12.36	3.74004
12.37	3.74201
12.38	3.74004
12.39	3.74267
12.4	3.7305
12.41	3.73477
12.42	3.73576
12.43	3.7351
12.44	3.7328
12.45	3.73477
12.46	3.73445
12.47	3.73149
12.48	3.73017
12.49	3.73379
12.5	3.73247
12.51	3.73609
12.52	3.73083
12.53	3.72787
12.54	3.72885
12.55	3.72951
12.56	3.73412
12.57	3.72754
12.58	3.72195
12.59	3.72491
12.6	3.72984
12.61	3.72787
12.62	3.71931
12.63	3.72787
12.64	3.72096
12.65	3.72655
12.66	3.72951
12.67	3.72425
12.68	3.72523
12.69	3.72195
12.7	3.71964
12.71	3.72556
12.72	3.72589
12.73	3.7226
12.74	3.7203
12.75	3.72227
12.76	3.72392
12.77	3.72129
12.78	3.73214
12.79	3.71997
12.8	3.72293
12.81	3.72655
12.82	3.72326
12.83	3.71602
12.84	3.71504
12.85	3.71931
12.86	3.73017
12.87	3.72589
12.88	3.72392
12.89	3.72688
12.9	3.72754
12.91	3.71931
12.92	3.72622
12.93	3.72885
12.94	3.72096
12.95	3.72523
12.96	3.72491
12.97	3.72063
12.98	3.7203
12.99	3.71931
13	3.72556
13.01	3.72556
13.02	3.72227
13.03	3.71964
13.04	3.72129
13.05	3.71997
13.06	3.72227
13.07	3.7203
13.08	3.71931
13.09	3.71931
13.1	3.7226
13.11	3.71734
13.12	3.71964
13.13	3.71537
13.14	3.71405
13.15	3.71833
13.16	3.72491
13.17	3.72622
13.18	3.71339
13.19	3.71372
13.2	3.72392
13.21	3.71833
13.22	3.71241
13.23	3.71668
13.24	3.71273
13.25	3.71635
13.26	3.71471
13.27	3.71668
13.28	3.71372
13.29	3.71438
13.3	3.70583
13.31	3.70681
13.32	3.71372
13.33	3.71273
13.34	3.71142
13.35	3.71043
13.36	3.71142
13.37	3.71471
13.38	3.7101
13.39	3.71504
13.4	3.7101
13.41	3.7078
13.42	3.70319
13.43	3.70813
13.44	3.70319
13.45	3.70879
13.46	3.71043
13.47	3.70846
13.48	3.7101
13.49	3.70944
13.5	3.7055
13.51	3.70517
13.52	3.71833
13.53	3.71372
13.54	3.71109
13.55	3.71306
13.56	3.71142
13.57	3.70714
13.58	3.71273
13.59	3.71372
13.6	3.70681
13.61	3.7101
13.62	3.70944
13.63	3.70813
13.64	3.71898
13.65	3.71701
13.66	3.70944
13.67	3.71405
13.68	3.70714
13.69	3.70616
13.7	3.70977
13.71	3.7055
13.72	3.70912
13.73	3.71372
13.74	3.71273
13.75	3.70616
13.76	3.70648
13.77	3.70517
13.78	3.70155
13.79	3.70319
13.8	3.70714
13.81	3.70583
13.82	3.70714
13.83	3.70287
13.84	3.70517
13.85	3.71175
13.86	3.70944
13.87	3.71076
13.88	3.7078
13.89	3.71208
13.9	3.70912
13.91	3.7078
13.92	3.70155
13.93	3.70517
13.94	3.70912
13.95	3.70648
13.96	3.70155
13.97	3.69365
13.98	3.70023
13.99	3.71076
14	3.70385
14.01	3.69892
14.02	3.70155
14.03	3.70451
14.04	3.70056
14.05	3.70188
14.06	3.70583
14.07	3.70517
14.08	3.70385
14.09	3.70089
14.1	3.70056
14.11	3.71142
14.12	3.70352
14.13	3.70122
14.14	3.70089
14.15	3.70188
14.16	3.70418
14.17	3.70714
14.18	3.71076
14.19	3.70451
14.2	3.7055
14.21	3.69727
14.22	3.70418
14.23	3.70418
14.24	3.70221
14.25	3.69991
14.26	3.70319
14.27	3.70287
14.28	3.7055
14.29	3.70221
14.3	3.69267
14.31	3.70583
14.32	3.70385
14.33	3.70188
14.34	3.70023
14.35	3.70287
14.36	3.69727
14.37	3.70188
14.38	3.69629
14.39	3.69629
14.4	3.69629
14.41	3.69267
14.42	3.69892
14.43	3.70089
14.44	3.69431
14.45	3.69267
14.46	3.69135
14.47	3.68839
14.48	3.69168
14.49	3.69234
14.5	3.69892
14.51	3.69004
14.52	3.69464
14.53	3.68971
14.54	3.69102
14.55	3.69629
14.56	3.69234
14.57	3.68675
14.58	3.69497
14.59	3.6976
14.6	3.69826
14.61	3.68938
14.62	3.69168
14.63	3.69069
14.64	3.69365
14.65	3.69694
14.66	3.69168
14.67	3.68806
14.68	3.69135
14.69	3.69168
14.7	3.68708
14.71	3.68971
14.72	3.68576
14.73	3.69069
14.74	3.68675
14.75	3.68576
14.76	3.68675
14.77	3.68543
14.78	3.69004
14.79	3.69102
14.8	3.68609
14.81	3.68412
14.82	3.68773
14.83	3.68642
14.84	3.68675
14.85	3.68247
14.86	3.68708
14.87	3.6805
14.88	3.67622
14.89	3.67918
14.9	3.67754
14.91	3.67951
14.92	3.68017
14.93	3.68214
14.94	3.68609
14.95	3.68444
14.96	3.6828
14.97	3.68773
14.98	3.68148
14.99	3.67984
15	3.67819
15.01	3.68083
15.02	3.68412
15.03	3.68905
15.04	3.67458
15.05	3.67655
15.06	3.68477
15.07	3.6828
15.08	3.6828
15.09	3.6828
15.1	3.68346
15.11	3.68642
15.12	3.68346
15.13	3.6851
15.14	3.6874
15.15	3.6828
15.16	3.68477
15.17	3.68971
15.18	3.68708
15.19	3.68379
15.2	3.68576
15.21	3.69004
15.22	3.69102
15.23	3.68115
15.24	3.68708
15.25	3.68181
15.26	3.6874
15.27	3.68181
15.28	3.68543
15.29	3.68708
15.3	3.68971
15.31	3.6851
15.32	3.68642
15.33	3.67721
15.34	3.67852
15.35	3.68872
15.36	3.68806
15.37	3.68247
15.38	3.67885
15.39	3.68083
15.4	3.68017
15.41	3.67589
15.42	3.67293
15.43	3.6726
15.44	3.67951
15.45	3.68115
15.46	3.67852
15.47	3.67556
15.48	3.67458
15.49	3.67951
15.5	3.67556
15.51	3.67392
15.52	3.67392
15.53	3.67227
15.54	3.67721
15.55	3.68444
15.56	3.68148
15.57	3.67129
15.58	3.67392
15.59	3.68412
15.6	3.67425
15.61	3.67951
15.62	3.67951
15.63	3.68115
15.64	3.67984
15.65	3.6749
15.66	3.67392
15.67	3.67556
15.68	3.67918
15.69	3.67655
15.7	3.67392
15.71	3.67885
15.72	3.68379
15.73	3.67721
15.74	3.67786
15.75	3.67293
15.76	3.67655
15.77	3.68313
15.78	3.67655
15.79	3.67721
15.8	3.67885
15.81	3.68148
15.82	3.67589
15.83	3.67622
15.84	3.67523
15.85	3.67819
15.86	3.67589
15.87	3.67655
15.88	3.67523
15.89	3.67194
15.9	3.67392
15.91	3.6805
15.92	3.66635
15.93	3.66964
15.94	3.67951
15.95	3.67227
15.96	3.67523
15.97	3.67721
15.98	3.67918
15.99	3.67392
16	3.66997
16.01	3.66931
16.02	3.66865
16.03	3.67754
16.04	3.67129
16.05	3.668
16.06	3.67458
16.07	3.67918
16.08	3.67589
16.09	3.67425
16.1	3.67392
16.11	3.67556
16.12	3.67458
16.13	3.67227
16.14	3.67589
16.15	3.67425
16.16	3.67096
16.17	3.66865
16.18	3.67096
16.19	3.67326
16.2	3.67819
16.21	3.67194
16.22	3.66602
16.23	3.668
16.24	3.67885
16.25	3.67885
16.26	3.67556
16.27	3.67458
16.28	3.67326
16.29	3.67589
16.3	3.67655
16.31	3.67523
16.32	3.67096
16.33	3.67523
16.34	3.67392
16.35	3.6703
16.36	3.67063
16.37	3.67655
16.38	3.67523
16.39	3.67161
16.4	3.66635
16.41	3.66569
16.42	3.6703
16.43	3.67655
16.44	3.67129
16.45	3.67063
16.46	3.66536
16.47	3.67096
16.48	3.67194
16.49	3.668
16.5	3.67293
16.51	3.66635
16.52	3.6726
16.53	3.66372
16.54	3.66405
16.55	3.6703
16.56	3.6703
16.57	3.66273
16.58	3.66109
16.59	3.668
16.6	3.66833
16.61	3.67161
16.62	3.66701
16.63	3.67227
16.64	3.67161
16.65	3.6749
16.66	3.66504
16.67	3.66536
16.68	3.66734
16.69	3.66701
16.7	3.66931
16.71	3.66438
16.72	3.66306
16.73	3.66668
16.74	3.66701
16.75	3.66734
16.76	3.66602
16.77	3.66569
16.78	3.66734
16.79	3.66833
16.8	3.67392
16.81	3.67458
16.82	3.67161
16.83	3.66602
16.84	3.67161
16.85	3.67096
16.86	3.67096
16.87	3.66701
16.88	3.66175
16.89	3.66471
16.9	3.66306
16.91	3.65911
16.92	3.66602
16.93	3.66306
16.94	3.6601
16.95	3.65813
16.96	3.65648
16.97	3.66635
16.98	3.66142
16.99	3.65879
17	3.66339
17.01	3.66964
17.02	3.66701
17.03	3.66635
17.04	3.66142
17.05	3.66471
17.06	3.66536
17.07	3.66142
17.08	3.65846
17.09	3.66207
17.1	3.66438
17.11	3.66471
17.12	3.66043
17.13	3.6601
17.14	3.66306
17.15	3.66043
17.16	3.66438
17.17	3.66372
17.18	3.65517
17.19	3.6555
17.2	3.65517
17.21	3.65747
17.22	3.66076
17.23	3.65484
17.24	3.6578
17.25	3.65944
17.26	3.668
17.27	3.65451
17.28	3.65681
17.29	3.65582
17.3	3.65319
17.31	3.65122
17.32	3.65089
17.33	3.65911
17.34	3.65352
17.35	3.65122
17.36	3.65221
17.37	3.65188
17.38	3.65319
17.39	3.65023
17.4	3.65418
17.41	3.65484
17.42	3.6578
17.43	3.65582
17.44	3.65122
17.45	3.65747
17.46	3.65221
17.47	3.65681
17.48	3.65188
17.49	3.64826
17.5	3.65451
17.51	3.65451
17.52	3.65352
17.53	3.65418
17.54	3.65484
17.55	3.66207
17.56	3.66635
17.57	3.65944
17.58	3.65879
17.59	3.65188
17.6	3.6578
17.61	3.65714
17.62	3.65286
17.63	3.65879
17.64	3.65846
17.65	3.65911
17.66	3.66076
17.67	3.65714
17.68	3.65484
17.69	3.65451
17.7	3.65615
17.71	3.65648
17.72	3.65648
17.73	3.65122
17.74	3.65484
17.75	3.65911
17.76	3.65484
17.77	3.65615
17.78	3.65286
17.79	3.65089
17.8	3.64727
17.81	3.65319
17.82	3.65517
17.83	3.65615
17.84	3.6476
17.85	3.64925
17.86	3.65418
17.87	3.65451
17.88	3.65813
17.89	3.65747
17.9	3.65385
17.91	3.64661
17.92	3.6499
17.93	3.64628
17.94	3.64727
17.95	3.65089
17.96	3.65582
17.97	3.64957
17.98	3.65122
17.99	3.65352
18	3.66109
18.01	3.65747
18.02	3.65254
18.03	3.65681
18.04	3.66076
18.05	3.65155
18.06	3.65254
18.07	3.65615
18.08	3.65813
18.09	3.65286
18.1	3.6499
18.11	3.64793
18.12	3.65155
18.13	3.65582
18.14	3.65286
18.15	3.64957
18.16	3.6601
18.17	3.65352
18.18	3.65056
18.19	3.64826
18.2	3.65089
18.21	3.65879
18.22	3.64727
18.23	3.65714
18.24	3.65911
18.25	3.65977
18.26	3.64957
18.27	3.64793
18.28	3.64694
18.29	3.65089
18.3	3.64727
18.31	3.64859
18.32	3.64628
18.33	3.65056
18.34	3.65418
18.35	3.64925
18.36	3.6555
18.37	3.65089
18.38	3.64234
18.39	3.64793
18.4	3.64497
18.41	3.64563
18.42	3.64464
18.43	3.64497
18.44	3.64563
18.45	3.64694
18.46	3.63971
18.47	3.64596
18.48	3.64661
18.49	3.64694
18.5	3.65155
18.51	3.65221
18.52	3.64859
18.53	3.65352
18.54	3.6499
18.55	3.64925
18.56	3.65155
18.57	3.65451
18.58	3.65188
18.59	3.65254
18.6	3.65582
18.61	3.64793
18.62	3.64069
18.63	3.65089
18.64	3.66109
18.65	3.6555
18.66	3.6453
18.67	3.64727
18.68	3.65615
18.69	3.65286
18.7	3.64859
18.71	3.65155
18.72	3.65484
18.73	3.6555
18.74	3.64694
18.75	3.65155
18.76	3.6555
18.77	3.65319
18.78	3.64661
18.79	3.64892
18.8	3.64464
18.81	3.64628
18.82	3.64859
18.83	3.64398
18.84	3.65254
18.85	3.65352
18.86	3.64398
18.87	3.64102
18.88	3.64826
18.89	3.64793
18.9	3.6499
18.91	3.64826
18.92	3.6476
18.93	3.65056
18.94	3.64628
18.95	3.64628
18.96	3.64201
18.97	3.6453
18.98	3.65582
18.99	3.65352
19	3.643
19.01	3.64694
19.02	3.64596
19.03	3.64859
19.04	3.64661
19.05	3.64332
19.06	3.64563
19.07	3.64332
19.08	3.64102
19.09	3.64267
19.1	3.6374
19.11	3.64036
19.12	3.64135
19.13	3.64431
19.14	3.64168
19.15	3.6453
19.16	3.64102
19.17	3.64793
19.18	3.64793
19.19	3.6476
19.2	3.6453
19.21	3.6476
19.22	3.64661
19.23	3.64925
19.24	3.64826
19.25	3.6499
19.26	3.643
19.27	3.64398
19.28	3.64398
19.29	3.643
19.3	3.64464
19.31	3.65056
19.32	3.6453
19.33	3.6476
19.34	3.64859
19.35	3.6374
19.36	3.64003
19.37	3.64464
19.38	3.64431
19.39	3.64793
19.4	3.64267
19.41	3.63971
19.42	3.64234
19.43	3.64694
19.44	3.64003
19.45	3.64497
19.46	3.64365
19.47	3.64102
19.48	3.63839
19.49	3.64234
19.5	3.64036
19.51	3.63543
19.52	3.6328
19.53	3.64168
19.54	3.63773
19.55	3.63872
19.56	3.64234
19.57	3.63872
19.58	3.64036
19.59	3.64168
19.6	3.63806
19.61	3.64267
19.62	3.64234
19.63	3.65089
19.64	3.64234
19.65	3.63905
19.66	3.6374
19.67	3.643
19.68	3.64596
19.69	3.64497
19.7	3.64596
19.71	3.64431
19.72	3.64628
19.73	3.64431
19.74	3.64431
19.75	3.6476
19.76	3.64859
19.77	3.6476
19.78	3.64036
19.79	3.64102
19.8	3.63806
19.81	3.64069
19.82	3.63971
19.83	3.64036
19.84	3.64267
19.85	3.63839
19.86	3.63773
19.87	3.64102
19.88	3.63971
19.89	3.6476
19.9	3.64036
19.91	3.63346
19.92	3.63773
19.93	3.63905
19.94	3.63773
19.95	3.63872
19.96	3.64069
19.97	3.62951
19.98	3.64069
19.99	3.63938
20	3.6328
20.01	3.63839
20.02	3.63707
20.03	3.63872
20.04	3.64332
20.05	3.63773
20.06	3.63872
20.07	3.63313
20.08	3.62819
20.09	3.6374
20.1	3.63609
20.11	3.63806
20.12	3.63971
20.13	3.6374
20.14	3.63773
20.15	3.63313
20.16	3.63938
20.17	3.64036
20.18	3.64332
20.19	3.64365
20.2	3.64168
20.21	3.64135
20.22	3.63675
20.23	3.63971
20.24	3.6374
20.25	3.63806
20.26	3.63642
20.27	3.63543
20.28	3.64332
20.29	3.64332
20.3	3.63905
20.31	3.63609
20.32	3.63477
20.33	3.63411
20.34	3.64135
20.35	3.64168
20.36	3.6328
20.37	3.63543
20.38	3.64003
20.39	3.63773
20.4	3.63839
20.41	3.63313
20.42	3.62589
20.43	3.63411
20.44	3.63707
20.45	3.63806
20.46	3.63642
20.47	3.63346
20.48	3.63346
20.49	3.63082
20.5	3.63905
20.51	3.64234
20.52	3.63905
20.53	3.63773
20.54	3.63773
20.55	3.63675
20.56	3.63707
20.57	3.62951
20.58	3.6351
20.59	3.6374
20.6	3.63017
20.61	3.63313
20.62	3.63378
20.63	3.63576
20.64	3.63609
20.65	3.62819
20.66	3.62852
20.67	3.63576
20.68	3.63411
20.69	3.6351
20.7	3.63609
20.71	3.63378
20.72	3.62918
20.73	3.63642
20.74	3.63576
20.75	3.63411
20.76	3.63543
20.77	3.63444
20.78	3.63115
20.79	3.62819
20.8	3.63839
20.81	3.63806
20.82	3.63346
20.83	3.63707
20.84	3.63609
20.85	3.63115
20.86	3.63707
20.87	3.6328
20.88	3.6351
20.89	3.63346
20.9	3.63214
20.91	3.63444
20.92	3.63411
20.93	3.62951
20.94	3.63148
20.95	3.63181
20.96	3.62885
20.97	3.63609
20.98	3.63872
20.99	3.64201
21	3.62984
21.01	3.62885
21.02	3.63477
21.03	3.63444
21.04	3.63905
21.05	3.643
21.06	3.63707
21.07	3.64102
21.08	3.63477
21.09	3.63378
21.1	3.63477
21.11	3.63839
21.12	3.63378
21.13	3.63378
21.14	3.64003
21.15	3.63017
21.16	3.6305
21.17	3.63181
21.18	3.63313
21.19	3.62918
21.2	3.63017
21.21	3.6351
21.22	3.63346
21.23	3.63905
21.24	3.63477
21.25	3.63181
21.26	3.63806
21.27	3.63378
21.28	3.63444
21.29	3.62819
21.3	3.63675
21.31	3.63411
21.32	3.63905
21.33	3.62918
21.34	3.63411
21.35	3.6374
21.36	3.63773
21.37	3.63115
21.38	3.63247
21.39	3.6328
21.4	3.63411
21.41	3.63346
21.42	3.62951
21.43	3.6328
21.44	3.6351
21.45	3.63609
21.46	3.63839
21.47	3.63707
21.48	3.63576
21.49	3.62556
21.5	3.63148
21.51	3.64102
21.52	3.63609
21.53	3.64431
21.54	3.64332
21.55	3.6374
21.56	3.63806
21.57	3.63971
21.58	3.64102
21.59	3.64003
21.6	3.63905
21.61	3.64234
21.62	3.63675
21.63	3.64464
21.64	3.64135
21.65	3.63707
21.66	3.63707
21.67	3.64102
21.68	3.64069
21.69	3.63543
21.7	3.63773
21.71	3.63115
21.72	3.62688
21.73	3.63411
21.74	3.63247
21.75	3.62688
21.76	3.63115
21.77	3.63148
21.78	3.62161
21.79	3.61865
21.8	3.62457
21.81	3.62293
21.82	3.62622
21.83	3.62293
21.84	3.6226
21.85	3.62392
21.86	3.62194
21.87	3.61767
21.88	3.62424
21.89	3.62457
21.9	3.63082
21.91	3.62359
21.92	3.62721
21.93	3.62556
21.94	3.62556
21.95	3.62786
21.96	3.6305
21.97	3.62688
21.98	3.63082
21.99	3.62622
22	3.62359
22.01	3.63181
22.02	3.62227
22.03	3.62096
22.04	3.62622
22.05	3.62556
22.06	3.62819
22.07	3.6249
22.08	3.6305
22.09	3.62556
22.1	3.63017
22.11	3.62984
22.12	3.62457
22.13	3.62655
22.14	3.62918
22.15	3.62885
22.16	3.62852
22.17	3.62721
22.18	3.62622
22.19	3.62622
22.2	3.62753
22.21	3.63444
22.22	3.62819
22.23	3.62227
22.24	3.63082
22.25	3.63214
22.26	3.62852
22.27	3.63346
22.28	3.62655
22.29	3.62688
22.3	3.62589
22.31	3.62589
22.32	3.62424
22.33	3.6328
22.34	3.62424
22.35	3.63346
22.36	3.63839
22.37	3.62885
22.38	3.62951
22.39	3.63313
22.4	3.62622
22.41	3.62424
22.42	3.62786
22.43	3.6305
22.44	3.62984
22.45	3.62655
22.46	3.63148
22.47	3.6305
22.48	3.63181
22.49	3.62753
22.5	3.63214
22.51	3.6328
22.52	3.63115
22.53	3.62589
22.54	3.63017
22.55	3.62721
22.56	3.62556
22.57	3.62819
22.58	3.6305
22.59	3.62819
22.6	3.63444
22.61	3.63444
22.62	3.62819
22.63	3.62589
22.64	3.62721
22.65	3.62655
22.66	3.62688
22.67	3.63313
22.68	3.62556
22.69	3.6203
22.7	3.6305
22.71	3.63642
22.72	3.63181
22.73	3.61964
22.74	3.62293
22.75	3.61931
22.76	3.62589
22.77	3.63115
22.78	3.62688
22.79	3.62293
22.8	3.62918
22.81	3.63181
22.82	3.62819
22.83	3.6249
22.84	3.61964
22.85	3.62359
22.86	3.62918
22.87	3.62424
22.88	3.61931
22.89	3.6226
22.9	3.62753
22.91	3.62852
22.92	3.62293
22.93	3.62392
22.94	3.62655
22.95	3.62721
22.96	3.61931
22.97	3.62589
22.98	3.62556
22.99	3.62128
23	3.61865
23.01	3.6249
23.02	3.62424
23.03	3.6203
23.04	3.6249
23.05	3.62457
23.06	3.62457
23.07	3.61898
23.08	3.61832
23.09	3.61964
23.1	3.62063
23.11	3.62194
23.12	3.62457
23.13	3.61832
23.14	3.62523
23.15	3.62556
23.16	3.61832
23.17	3.61931
23.18	3.62096
23.19	3.6203
23.2	3.61832
23.21	3.61602
23.22	3.61043
23.23	3.61767
23.24	3.61339
23.25	3.61668
23.26	3.61931
23.27	3.62161
23.28	3.61964
23.29	3.61536
23.3	3.61602
23.31	3.62063
23.32	3.61832
23.33	3.6226
23.34	3.62194
23.35	3.60845
23.36	3.61635
23.37	3.6249
23.38	3.62293
23.39	3.62359
23.4	3.62326
23.41	3.62194
23.42	3.61438
23.43	3.61931
23.44	3.61767
23.45	3.61635
23.46	3.6203
23.47	3.62194
23.48	3.62589
23.49	3.62556
23.5	3.6226
23.51	3.6203
23.52	3.62556
23.53	3.63181
23.54	3.62556
23.55	3.62556
23.56	3.62622
23.57	3.62392
23.58	3.62457
23.59	3.6203
23.6	3.62293
23.61	3.62589
23.62	3.6249
23.63	3.62852
23.64	3.62424
23.65	3.6249
23.66	3.63181
23.67	3.62786
23.68	3.63181
23.69	3.62194
23.7	3.62457
23.71	3.63378
23.72	3.62556
23.73	3.62523
23.74	3.62852
23.75	3.62227
23.76	3.62096
23.77	3.62457
23.78	3.62721
23.79	3.61734
23.8	3.62721
23.81	3.62622
23.82	3.62326
23.83	3.62918
23.84	3.62819
23.85	3.62589
23.86	3.62721
23.87	3.6305
23.88	3.62161
23.89	3.62753
23.9	3.62885
23.91	3.63214
23.92	3.62622
23.93	3.62786
23.94	3.63017
23.95	3.61767
23.96	3.62424
23.97	3.62622
23.98	3.62556
23.99	3.62589
24	3.62786
24.01	3.62457
24.02	3.62688
24.03	3.61832
24.04	3.62096
24.05	3.61602
24.06	3.61438
24.07	3.61701
24.08	3.61701
24.09	3.62523
24.1	3.62161
24.11	3.61799
24.12	3.61832
24.13	3.6101
24.14	3.61569
24.15	3.61339
24.16	3.60977
24.17	3.61405
24.18	3.6124
24.19	3.60878
24.2	3.61602
24.21	3.61142
24.22	3.61635
24.23	3.62457
24.24	3.61964
24.25	3.61339
24.26	3.61174
24.27	3.61602
24.28	3.61339
24.29	3.61043
24.3	3.61832
24.31	3.62392
24.32	3.61635
24.33	3.61734
24.34	3.61635
24.35	3.61964
24.36	3.61832
24.37	3.61569
24.38	3.61207
24.39	3.61668
24.4	3.61569
24.41	3.61339
24.42	3.61142
24.43	3.61569
24.44	3.61701
24.45	3.61964
24.46	3.61471
24.47	3.61438
24.48	3.61471
24.49	3.61734
24.5	3.61602
24.51	3.61931
24.52	3.6101
24.53	3.61438
24.54	3.61997
24.55	3.61503
24.56	3.61997
24.57	3.61536
24.58	3.6203
24.59	3.62918
24.6	3.62556
24.61	3.61767
24.62	3.61701
24.63	3.61865
24.64	3.61767
24.65	3.62392
24.66	3.61734
24.67	3.62096
24.68	3.62359
24.69	3.62096
24.7	3.61701
24.71	3.62293
24.72	3.6249
24.73	3.62063
24.74	3.61997
24.75	3.62161
24.76	3.62556
24.77	3.63148
24.78	3.62457
24.79	3.62326
24.8	3.61799
24.81	3.61503
24.82	3.61602
24.83	3.61964
24.84	3.61207
24.85	3.61438
24.86	3.61865
24.87	3.61832
24.88	3.61405
24.89	3.61405
24.9	3.61635
24.91	3.61832
24.92	3.61076
24.93	3.61273
24.94	3.60878
24.95	3.61734
24.96	3.61569
24.97	3.61865
24.98	3.60845
24.99	3.61207
25	3.61405
25.01	3.6124
25.02	3.61306
25.03	3.6101
25.04	3.60977
25.05	3.60878
25.06	3.61174
25.07	3.6101
25.08	3.61569
25.09	3.61405
25.1	3.61471
25.11	3.61405
25.12	3.61372
25.13	3.61701
25.14	3.61832
25.15	3.61734
25.16	3.61602
25.17	3.60813
25.18	3.61767
25.19	3.60911
25.2	3.60845
25.21	3.61536
25.22	3.61043
25.23	3.61438
25.24	3.61635
25.25	3.61471
25.26	3.61602
25.27	3.61602
25.28	3.61536
25.29	3.61471
25.3	3.61207
25.31	3.61438
25.32	3.61076
25.33	3.61832
25.34	3.61471
25.35	3.61832
25.36	3.62227
25.37	3.61536
25.38	3.61438
25.39	3.61635
25.4	3.61536
25.41	3.61701
25.42	3.61767
25.43	3.61306
25.44	3.61668
25.45	3.61602
25.46	3.61799
25.47	3.61668
25.48	3.61668
25.49	3.61109
25.5	3.61142
25.51	3.61701
25.52	3.61142
25.53	3.60681
25.54	3.61306
25.55	3.61174
25.56	3.60714
25.57	3.60484
25.58	3.61174
25.59	3.61207
25.6	3.61109
25.61	3.61076
25.62	3.60944
25.63	3.6101
25.64	3.60648
25.65	3.61273
25.66	3.60878
25.67	3.61668
25.68	3.6124
25.69	3.61174
25.7	3.61372
25.71	3.61273
25.72	3.61174
25.73	3.61142
25.74	3.60813
25.75	3.60878
25.76	3.61339
25.77	3.6101
25.78	3.61142
25.79	3.60813
25.8	3.60681
25.81	3.60352
25.82	3.6078
25.83	3.6022
25.84	3.60352
25.85	3.61602
25.86	3.60681
25.87	3.60122
25.88	3.60944
25.89	3.61438
25.9	3.60615
25.91	3.60582
25.92	3.60549
25.93	3.61306
25.94	3.61273
25.95	3.61306
25.96	3.60813
25.97	3.61109
25.98	3.6101
25.99	3.61273
26	3.60944
26.01	3.60813
26.02	3.61043
26.03	3.60385
26.04	3.60648
26.05	3.60418
26.06	3.61635
26.07	3.61207
26.08	3.61174
26.09	3.60911
26.1	3.61668
26.11	3.60484
26.12	3.61569
26.13	3.61109
26.14	3.60911
26.15	3.60944
26.16	3.6101
26.17	3.61503
26.18	3.6101
26.19	3.61174
26.2	3.60747
26.21	3.60418
26.22	3.60582
26.23	3.60944
26.24	3.60813
26.25	3.60878
26.26	3.61306
26.27	3.60845
26.28	3.60286
26.29	3.60977
26.3	3.6101
26.31	3.61109
26.32	3.61142
26.33	3.60747
26.34	3.61174
26.35	3.61142
26.36	3.61372
26.37	3.60813
26.38	3.60714
26.39	3.60451
26.4	3.60944
26.41	3.61076
26.42	3.61273
26.43	3.61142
26.44	3.6078
26.45	3.6124
26.46	3.61076
26.47	3.60714
26.48	3.60188
26.49	3.60582
26.5	3.60319
26.51	3.61043
26.52	3.60319
26.53	3.61109
26.54	3.61174
26.55	3.60517
26.56	3.6022
26.57	3.60747
26.58	3.60845
26.59	3.60845
26.6	3.60155
26.61	3.60582
26.62	3.61174
26.63	3.61174
26.64	3.61109
26.65	3.60517
26.66	3.60484
26.67	3.60977
26.68	3.60878
26.69	3.61174
26.7	3.60385
26.71	3.60582
26.72	3.61109
26.73	3.60056
26.74	3.60056
26.75	3.60253
26.76	3.60582
26.77	3.61076
26.78	3.60845
26.79	3.5999
26.8	3.60549
26.81	3.60352
26.82	3.60188
26.83	3.61174
26.84	3.60813
26.85	3.60319
26.86	3.60911
26.87	3.61142
26.88	3.60484
26.89	3.60286
26.9	3.61339
26.91	3.60944
26.92	3.60615
26.93	3.61207
26.94	3.60944
26.95	3.61438
26.96	3.60352
26.97	3.60648
26.98	3.61142
26.99	3.61142
27	3.6124
27.01	3.60714
27.02	3.60517
27.03	3.60089
27.04	3.60451
27.05	3.60615
27.06	3.60549
27.07	3.60681
27.08	3.60451
27.09	3.60648
27.1	3.60878
27.11	3.61142
27.12	3.60582
27.13	3.60944
27.14	3.60286
27.15	3.60155
27.16	3.61471
27.17	3.60714
27.18	3.60582
27.19	3.60089
27.2	3.60484
27.21	3.6124
27.22	3.60418
27.23	3.60188
27.24	3.59957
27.25	3.60385
27.26	3.59595
27.27	3.59826
27.28	3.59365
27.29	3.60385
27.3	3.60714
27.31	3.60319
27.32	3.60385
27.33	3.60253
27.34	3.60286
27.35	3.60188
27.36	3.60385
27.37	3.60023
27.38	3.60418
27.39	3.60517
27.4	3.59398
27.41	3.59661
27.42	3.59628
27.43	3.59924
27.44	3.59826
27.45	3.59793
27.46	3.60549
27.47	3.60188
27.48	3.59924
27.49	3.60286
27.5	3.61273
27.51	3.60714
27.52	3.6101
27.53	3.60056
27.54	3.59859
27.55	3.60615
27.56	3.60319
27.57	3.60911
27.58	3.60122
27.59	3.60549
27.6	3.60582
27.61	3.60352
27.62	3.60451
27.63	3.60517
27.64	3.60977
27.65	3.60878
27.66	3.60188
27.67	3.6078
27.68	3.61043
27.69	3.59924
27.7	3.60582
27.71	3.60944
27.72	3.6078
27.73	3.60813
27.74	3.61076
27.75	3.61076
27.76	3.60451
27.77	3.60911
27.78	3.60813
27.79	3.60582
27.8	3.6101
27.81	3.60813
27.82	3.60385
27.83	3.5976
27.84	3.60319
27.85	3.60352
27.86	3.59924
27.87	3.60681
27.88	3.61339
27.89	3.60517
27.9	3.60549
27.91	3.60418
27.92	3.61207
27.93	3.60253
27.94	3.60089
27.95	3.60582
27.96	3.60714
27.97	3.60813
27.98	3.6022
27.99	3.59694
28	3.5999
28.01	3.5976
28.02	3.60319
28.03	3.60385
28.04	3.60188
28.05	3.60056
28.06	3.5999
28.07	3.59793
28.08	3.59793
28.09	3.5976
28.1	3.5953
28.11	3.59859
28.12	3.59563
28.13	3.5953
28.14	3.59595
28.15	3.5976
28.16	3.59694
28.17	3.59892
28.18	3.59957
28.19	3.59957
28.2	3.59859
28.21	3.60089
28.22	3.59924
28.23	3.60155
28.24	3.59727
28.25	3.59628
28.26	3.60253
28.27	3.60155
28.28	3.60484
28.29	3.60747
28.3	3.60681
28.31	3.60352
28.32	3.59892
28.33	3.60385
28.34	3.60484
28.35	3.6078
28.36	3.60681
28.37	3.60944
28.38	3.60747
28.39	3.60845
28.4	3.60845
28.41	3.60517
28.42	3.60681
28.43	3.60878
28.44	3.61174
28.45	3.60286
28.46	3.60451
28.47	3.59924
28.48	3.59924
28.49	3.60648
28.5	3.60747
28.51	3.61076
28.52	3.60385
28.53	3.60319
28.54	3.59694
28.55	3.60122
28.56	3.59793
28.57	3.60188
28.58	3.5999
28.59	3.60023
28.6	3.60056
28.61	3.59661
28.62	3.60056
28.63	3.60089
28.64	3.59957
28.65	3.60451
28.66	3.60418
28.67	3.60352
28.68	3.59168
28.69	3.59892
28.7	3.60319
28.71	3.59793
28.72	3.59957
28.73	3.59398
28.74	3.5897
28.75	3.59727
28.76	3.59859
28.77	3.59661
28.78	3.59332
28.79	3.59727
28.8	3.59266
28.81	3.59694
28.82	3.59694
28.83	3.59694
28.84	3.5976
28.85	3.59826
28.86	3.59332
28.87	3.59069
28.88	3.59826
28.89	3.59234
28.9	3.59694
28.91	3.59266
28.92	3.59464
28.93	3.60089
28.94	3.60089
28.95	3.5976
28.96	3.59497
28.97	3.59332
28.98	3.60056
28.99	3.60056
29	3.59694
29.01	3.59694
29.02	3.6022
29.03	3.60089
29.04	3.60023
29.05	3.60286
29.06	3.59924
29.07	3.59628
29.08	3.59826
29.09	3.59859
29.1	3.59661
29.11	3.5953
29.12	3.59859
29.13	3.5953
29.14	3.59957
29.15	3.60056
29.16	3.59661
29.17	3.59365
29.18	3.5953
29.19	3.60056
29.2	3.60056
29.21	3.5976
29.22	3.59365
29.23	3.58905
29.24	3.59563
29.25	3.59924
29.26	3.59957
29.27	3.5999
29.28	3.59859
29.29	3.59924
29.3	3.5953
29.31	3.59957
29.32	3.60451
29.33	3.60023
29.34	3.59595
29.35	3.60286
29.36	3.59234
29.37	3.59563
29.38	3.60385
29.39	3.60517
29.4	3.60056
29.41	3.59661
29.42	3.59793
29.43	3.60352
29.44	3.60549
29.45	3.60549
29.46	3.60155
29.47	3.6022
29.48	3.60549
29.49	3.60813
29.5	3.60418
29.51	3.60418
29.52	3.60747
29.53	3.60155
29.54	3.60253
29.55	3.59859
29.56	3.5999
29.57	3.60286
29.58	3.5999
29.59	3.6022
29.6	3.60484
29.61	3.59892
29.62	3.60188
29.63	3.60747
29.64	3.60418
29.65	3.60813
29.66	3.60385
29.67	3.59497
29.68	3.60089
29.69	3.60089
29.7	3.60813
29.71	3.60549
29.72	3.60582
29.73	3.59957
29.74	3.60056
29.75	3.60352
29.76	3.59826
29.77	3.60451
29.78	3.60385
29.79	3.60155
29.8	3.60253
29.81	3.5999
29.82	3.60286
29.83	3.60451
29.84	3.60418
29.85	3.60648
29.86	3.60615
29.87	3.59793
29.88	3.5953
29.89	3.59464
29.9	3.5999
29.91	3.60451
29.92	3.60023
29.93	3.60155
29.94	3.5976
29.95	3.59793
29.96	3.59497
29.97	3.59365
29.98	3.59431
29.99	3.59431
30	3.59793
