"BIO-KINE ASCII FILE"
"_COMMENT"	"MOS-500 Spectrometer"
"_COMMENT"	"Kinetics measurement"
"_COMMENT"	"Y Unit : Volt,  X Unit : s"
"_COMMENT"	"Excitation wavelength : 380 nm"
"_COMMENT"	"Fentes bandwidth =  1 nm"
"_COMMENT"	"HV= 575V"
"_COMMENT"	"Timebase  1 =  .01 s   3001 pts"
"_SFM"	"SFM-400 /S  Advanced mode"
"_SFM"	"Ratio : S1: 2.5, S2: 0, S3: 0, S4: 1"
"_SFM"	"Content : S1: , S2: , S3: , S4:"
"_SFM"	"Concentration : S1: , S2: , S3: , S4:"
"_SFM"	"Total volume : 209 µl  Flow : 3.5 mL/s"
"_SFM"	"Acquisition start :  10 ms before stop"
"_SFM"	"cuve=FC-15, s1=10 ml , s2=10 ml , s3=10 ml , s4=1.9 ml"
"_UNITX"	"s"
"_UNITY"	"Volt"
"_DELTAX"	0
"_DATA"
1e-300	5.77826
0.01	6.18978
0.02	6.40196
0.03	6.42236
0.04	6.42729
0.05	6.4365
0.06	6.44538
0.07	6.45229
0.08	6.45986
0.09	6.45887
0.1	6.4615
0.11	6.46611
0.12	6.46446
0.13	6.46512
0.14	6.46611
0.15	6.46644
0.16	6.4694
0.17	6.46545
0.18	6.4615
0.19	6.46874
0.2	6.46907
0.21	6.47104
0.22	6.4638
0.23	6.45723
0.24	6.45887
0.25	6.46611
0.26	6.45558
0.27	6.45459
0.28	6.45032
0.29	6.44275
0.3	6.44078
0.31	6.43749
0.32	6.44473
0.33	6.44374
0.34	6.4342
0.35	6.42992
0.36	6.42992
0.37	6.42992
0.38	6.42301
0.39	6.41643
0.4	6.4115
0.41	6.41051
0.42	6.41216
0.43	6.40986
0.44	6.40229
0.45	6.40558
0.46	6.39604
0.47	6.39176
0.48	6.38091
0.49	6.37729
0.5	6.38189
0.51	6.37564
0.52	6.36939
0.53	6.3638
0.54	6.35985
0.55	6.35064
0.56	6.34735
0.57	6.35031
0.58	6.34406
0.59	6.3365
0.6	6.33124
0.61	6.32959
0.62	6.33124
0.63	6.32038
0.64	6.31314
0.65	6.30393
0.66	6.3013
0.67	6.29604
0.68	6.29538
0.69	6.29406
0.7	6.29275
0.71	6.28518
0.72	6.27893
0.73	6.27531
0.74	6.27564
0.75	6.26972
0.76	6.26511
0.77	6.2559
0.78	6.25689
0.79	6.25294
0.8	6.24472
0.81	6.23913
0.82	6.23814
0.83	6.23288
0.84	6.23452
0.85	6.23419
0.86	6.22334
0.87	6.21643
0.88	6.21676
0.89	6.2013
0.9	6.20393
0.91	6.19603
0.92	6.19242
0.93	6.19209
0.94	6.18682
0.95	6.17597
0.96	6.17761
0.97	6.17038
0.98	6.16182
0.99	6.1559
1	6.15097
1.01	6.1457
1.02	6.13715
1.03	6.13485
1.04	6.1309
1.05	6.12597
1.06	6.12827
1.07	6.12695
1.08	6.11314
1.09	6.10886
1.1	6.10031
1.11	6.09603
1.12	6.10129
1.13	6.08583
1.14	6.08518
1.15	6.08452
1.16	6.07596
1.17	6.07432
1.18	6.07004
1.19	6.05623
1.2	6.05327
1.21	6.05327
1.22	6.04899
1.23	6.04274
1.24	6.03682
1.25	6.02892
1.26	6.02399
1.27	6.02366
1.28	6.02004
1.29	6.01609
1.3	6.00721
1.31	6.00228
1.32	6.00129
1.33	6.00261
1.34	5.9934
1.35	5.98451
1.36	5.9809
1.37	5.98188
1.38	5.96938
1.39	5.97201
1.4	5.96872
1.41	5.95787
1.42	5.95392
1.43	5.94636
1.44	5.93978
1.45	5.94109
1.46	5.93714
1.47	5.92925
1.48	5.92859
1.49	5.92201
1.5	5.91576
1.51	5.91182
1.52	5.90458
1.53	5.90326
1.54	5.89537
1.55	5.89701
1.56	5.88879
1.57	5.88681
1.58	5.8707
1.59	5.87004
1.6	5.87102
1.61	5.86379
1.62	5.85359
1.63	5.85096
1.64	5.84405
1.65	5.84537
1.66	5.83681
1.67	5.83385
1.68	5.8253
1.69	5.81938
1.7	5.81313
1.71	5.81148
1.72	5.80721
1.73	5.80194
1.74	5.79602
1.75	5.78319
1.76	5.78319
1.77	5.77563
1.78	5.76905
1.79	5.76773
1.8	5.76346
1.81	5.75326
1.82	5.7503
1.83	5.74372
1.84	5.73878
1.85	5.73484
1.86	5.72201
1.87	5.72398
1.88	5.71839
1.89	5.71313
1.9	5.71115
1.91	5.69799
1.92	5.69503
1.93	5.69207
1.94	5.6924
1.95	5.6822
1.96	5.67793
1.97	5.68122
1.98	5.67365
1.99	5.66937
2	5.65819
2.01	5.65128
2.02	5.65227
2.03	5.64668
2.04	5.63681
2.05	5.63714
2.06	5.6299
2.07	5.62891
2.08	5.6174
2.09	5.61608
2.1	5.61378
2.11	5.60325
2.12	5.59733
2.13	5.59338
2.14	5.59042
2.15	5.58549
2.16	5.57759
2.17	5.57003
2.18	5.56641
2.19	5.56641
2.2	5.56181
2.21	5.55786
2.22	5.54799
2.23	5.54404
2.24	5.53384
2.25	5.53121
2.26	5.522
2.27	5.51805
2.28	5.5174
2.29	5.51378
2.3	5.50588
2.31	5.50358
2.32	5.49832
2.33	5.49404
2.34	5.48516
2.35	5.47595
2.36	5.47266
2.37	5.47529
2.38	5.46608
2.39	5.46279
2.4	5.45753
2.41	5.45095
2.42	5.44831
2.43	5.44766
2.44	5.43779
2.45	5.4368
2.46	5.4243
2.47	5.42002
2.48	5.41641
2.49	5.41575
2.5	5.40983
2.51	5.4072
2.52	5.39667
2.53	5.39108
2.54	5.38713
2.55	5.38779
2.56	5.38088
2.57	5.37693
2.58	5.37167
2.59	5.3664
2.6	5.36279
2.61	5.35884
2.62	5.35259
2.63	5.34996
2.64	5.34371
2.65	5.34239
2.66	5.33219
2.67	5.33121
2.68	5.32825
2.69	5.32496
2.7	5.31936
2.71	5.31311
2.72	5.30851
2.73	5.30884
2.74	5.30324
2.75	5.29535
2.76	5.2914
2.77	5.29173
2.78	5.28515
2.79	5.27857
2.8	5.2743
2.81	5.27002
2.82	5.26936
2.83	5.25884
2.84	5.2539
2.85	5.24765
2.86	5.24107
2.87	5.24206
2.88	5.24041
2.89	5.2266
2.9	5.22364
2.91	5.22199
2.92	5.21837
2.93	5.21245
2.94	5.2062
2.95	5.19239
2.96	5.19666
2.97	5.19304
2.98	5.18811
2.99	5.18383
3	5.1812
3.01	5.17199
3.02	5.17035
3.03	5.16146
3.04	5.15258
3.05	5.14436
3.06	5.14633
3.07	5.14699
3.08	5.1414
3.09	5.13087
3.1	5.12659
3.11	5.12396
3.12	5.11804
3.13	5.1187
3.14	5.11113
3.15	5.10752
3.16	5.0983
3.17	5.09896
3.18	5.09238
3.19	5.09041
3.2	5.08547
3.21	5.07594
3.22	5.07265
3.23	5.06903
3.24	5.06672
3.25	5.06541
3.26	5.0608
3.27	5.05061
3.28	5.05093
3.29	5.04337
3.3	5.04107
3.31	5.04337
3.32	5.0358
3.33	5.02297
3.34	5.01804
3.35	5.01903
3.36	5.01738
3.37	5.01606
3.38	5.00554
3.39	5.00324
3.4	4.99468
3.41	4.99402
3.42	4.99074
3.43	4.98777
3.44	4.98547
3.45	4.9756
3.46	4.97758
3.47	4.97297
3.48	4.96475
3.49	4.96376
3.5	4.95389
3.51	4.95093
3.52	4.94962
3.53	4.94633
3.54	4.93777
3.55	4.9335
3.56	4.93152
3.57	4.92363
3.58	4.92198
3.59	4.92133
3.6	4.91639
3.61	4.91475
3.62	4.90751
3.63	4.90389
3.64	4.89632
3.65	4.89139
3.66	4.89402
3.67	4.88777
3.68	4.87823
3.69	4.87494
3.7	4.87659
3.71	4.87001
3.72	4.86376
3.73	4.85784
3.74	4.85652
3.75	4.84994
3.76	4.84961
3.77	4.84534
3.78	4.83909
3.79	4.83711
3.8	4.82922
3.81	4.82428
3.82	4.82264
3.83	4.8233
3.84	4.81836
3.85	4.81244
3.86	4.80224
3.87	4.80619
3.88	4.79994
3.89	4.80158
3.9	4.79106
3.91	4.78843
3.92	4.78645
3.93	4.77625
3.94	4.77658
3.95	4.7779
3.96	4.77264
3.97	4.75915
3.98	4.76112
3.99	4.76474
4	4.76014
4.01	4.74796
4.02	4.74764
4.03	4.74599
4.04	4.7404
4.05	4.73086
4.06	4.7279
4.07	4.72592
4.08	4.72592
4.09	4.71902
4.1	4.71244
4.11	4.70948
4.12	4.71441
4.13	4.70586
4.14	4.70323
4.15	4.70158
4.16	4.69303
4.17	4.68908
4.18	4.68875
4.19	4.68908
4.2	4.68415
4.21	4.67296
4.22	4.67132
4.23	4.67066
4.24	4.67132
4.25	4.66803
4.26	4.66079
4.27	4.65388
4.28	4.65125
4.29	4.65257
4.3	4.6473
4.31	4.64303
4.32	4.64007
4.33	4.63612
4.34	4.63349
4.35	4.63283
4.36	4.62822
4.37	4.62362
4.38	4.6177
4.39	4.61211
4.4	4.61013
4.41	4.61441
4.42	4.60651
4.43	4.60454
4.44	4.595
4.45	4.59171
4.46	4.58908
4.47	4.59533
4.48	4.58809
4.49	4.58118
4.5	4.57395
4.51	4.57428
4.52	4.57099
4.53	4.5723
4.54	4.56835
4.55	4.5621
4.56	4.5598
4.57	4.55388
4.58	4.55059
4.59	4.5496
4.6	4.55125
4.61	4.54697
4.62	4.53776
4.63	4.53875
4.64	4.53381
4.65	4.52493
4.66	4.52296
4.67	4.51868
4.68	4.51835
4.69	4.52164
4.7	4.52
4.71	4.51704
4.72	4.50881
4.73	4.50717
4.74	4.49927
4.75	4.49894
4.76	4.49533
4.77	4.49204
4.78	4.48348
4.79	4.48414
4.8	4.48217
4.81	4.48315
4.82	4.4825
4.83	4.47098
4.84	4.46934
4.85	4.46802
4.86	4.46736
4.87	4.46802
4.88	4.46309
4.89	4.45947
4.9	4.45519
4.91	4.45059
4.92	4.44598
4.93	4.44565
4.94	4.44532
4.95	4.44598
4.96	4.43381
4.97	4.42526
4.98	4.42756
4.99	4.42164
5	4.42065
5.01	4.42295
5.02	4.41835
5.03	4.41835
5.04	4.41341
5.05	4.41407
5.06	4.40914
5.07	4.40519
5.08	4.3996
5.09	4.39828
5.1	4.39631
5.11	4.39466
5.12	4.39269
5.13	4.39039
5.14	4.38545
5.15	4.38085
5.16	4.38019
5.17	4.37657
5.18	4.3769
5.19	4.37065
5.2	4.36769
5.21	4.36407
5.22	4.37032
5.23	4.36703
5.24	4.36144
5.25	4.35651
5.26	4.35223
5.27	4.35552
5.28	4.35256
5.29	4.35157
5.3	4.34598
5.31	4.34335
5.32	4.34762
5.33	4.34236
5.34	4.33677
5.35	4.33611
5.36	4.32986
5.37	4.32361
5.38	4.32328
5.39	4.3269
5.4	4.32196
5.41	4.31604
5.42	4.31407
5.43	4.31407
5.44	4.30914
5.45	4.2996
5.46	4.30453
5.47	4.29894
5.48	4.30223
5.49	4.29927
5.5	4.28907
5.51	4.28907
5.52	4.29499
5.53	4.28874
5.54	4.28348
5.55	4.28775
5.56	4.27756
5.57	4.27229
5.58	4.27098
5.59	4.27361
5.6	4.27558
5.61	4.27163
5.62	4.26473
5.63	4.26374
5.64	4.2588
5.65	4.25683
5.66	4.25979
5.67	4.25584
5.68	4.25387
5.69	4.25157
5.7	4.24992
5.71	4.24236
5.72	4.24203
5.73	4.24795
5.74	4.24334
5.75	4.23644
5.76	4.23545
5.77	4.22591
5.78	4.23019
5.79	4.22624
5.8	4.22624
5.81	4.22361
5.82	4.22558
5.83	4.22097
5.84	4.21966
5.85	4.21703
5.86	4.21538
5.87	4.21045
5.88	4.21143
5.89	4.20683
5.9	4.2042
5.91	4.20584
5.92	4.2065
5.93	4.19762
5.94	4.19597
5.95	4.19532
5.96	4.19499
5.97	4.19433
5.98	4.19236
5.99	4.19236
6	4.18907
6.01	4.18841
6.02	4.17953
6.03	4.17953
6.04	4.17558
6.05	4.17558
6.06	4.17492
6.07	4.17459
6.08	4.1713
6.09	4.169
6.1	4.16735
6.11	4.1611
6.12	4.16242
6.13	4.16242
6.14	4.15617
6.15	4.15452
6.16	4.15288
6.17	4.15518
6.18	4.15584
6.19	4.14959
6.2	4.14597
6.21	4.14893
6.22	4.14433
6.23	4.14301
6.24	4.13775
6.25	4.13545
6.26	4.13281
6.27	4.13183
6.28	4.1338
6.29	4.12722
6.3	4.12656
6.31	4.12821
6.32	4.12755
6.33	4.12492
6.34	4.12163
6.35	4.11867
6.36	4.11604
6.37	4.11472
6.38	4.11176
6.39	4.11044
6.4	4.1111
6.41	4.10946
6.42	4.10814
6.43	4.10617
6.44	4.09729
6.45	4.09696
6.46	4.09663
6.47	4.09564
6.48	4.09498
6.49	4.09827
6.5	4.09564
6.51	4.08709
6.52	4.08511
6.53	4.08676
6.54	4.09038
6.55	4.08479
6.56	4.08413
6.57	4.08051
6.58	4.08117
6.59	4.07558
6.6	4.07689
6.61	4.07755
6.62	4.06538
6.63	4.07229
6.64	4.07196
6.65	4.06669
6.66	4.069
6.67	4.06077
6.68	4.06307
6.69	4.06834
6.7	4.06275
6.71	4.05551
6.72	4.05255
6.73	4.05814
6.74	4.05781
6.75	4.05847
6.76	4.05288
6.77	4.04728
6.78	4.04564
6.79	4.04367
6.8	4.04202
6.81	4.04531
6.82	4.04202
6.83	4.03906
6.84	4.044
6.85	4.03676
6.86	4.03051
6.87	4.03643
6.88	4.03544
6.89	4.03281
6.9	4.03215
6.91	4.02656
6.92	4.02492
6.93	4.02294
6.94	4.02557
6.95	4.02886
6.96	4.02228
6.97	4.02163
6.98	4.02163
6.99	4.01636
7	4.01603
7.01	4.01373
7.02	4.01899
7.03	4.01143
7.04	4.01143
7.05	4.01011
7.06	4.00945
7.07	4.01077
7.08	4.00485
7.09	4.00715
7.1	4.0088
7.11	4.00584
7.12	4.00123
7.13	3.99399
7.14	3.9986
7.15	3.99498
7.16	3.99465
7.17	3.99366
7.18	3.99399
7.19	3.99597
7.2	3.98972
7.21	3.98741
7.22	3.9884
7.23	3.98577
7.24	3.98445
7.25	3.9861
7.26	3.98051
7.27	3.9782
7.28	3.9838
7.29	3.98248
7.3	3.97985
7.31	3.98182
7.32	3.97853
7.33	3.98281
7.34	3.97557
7.35	3.97755
7.36	3.97426
7.37	3.97162
7.38	3.97459
7.39	3.96998
7.4	3.97064
7.41	3.97064
7.42	3.97031
7.43	3.96537
7.44	3.96702
7.45	3.96505
7.46	3.96307
7.47	3.9634
7.48	3.95814
7.49	3.96505
7.5	3.95781
7.51	3.9611
7.52	3.96241
7.53	3.9588
7.54	3.95189
7.55	3.95353
7.56	3.95518
7.57	3.95945
7.58	3.95682
7.59	3.95452
7.6	3.94991
7.61	3.95024
7.62	3.95287
7.63	3.94597
7.64	3.94301
7.65	3.94662
7.66	3.93939
7.67	3.93873
7.68	3.93511
7.69	3.93741
7.7	3.94004
7.71	3.93379
7.72	3.93412
7.73	3.92985
7.74	3.93347
7.75	3.93083
7.76	3.93281
7.77	3.92524
7.78	3.92623
7.79	3.92853
7.8	3.92853
7.81	3.92393
7.82	3.92261
7.83	3.92656
7.84	3.92491
7.85	3.92524
7.86	3.91702
7.87	3.91899
7.88	3.91899
7.89	3.918
7.9	3.91636
7.91	3.91471
7.92	3.91274
7.93	3.9111
7.94	3.91307
7.95	3.90912
7.96	3.91406
7.97	3.91373
7.98	3.90912
7.99	3.90945
8	3.90912
8.01	3.90616
8.02	3.90978
8.03	3.91011
8.04	3.90846
8.05	3.89991
8.06	3.90123
8.07	3.90057
8.08	3.89728
8.09	3.90057
8.1	3.8986
8.11	3.90254
8.12	3.90123
8.13	3.90189
8.14	3.89366
8.15	3.893
8.16	3.893
8.17	3.89399
8.18	3.88807
8.19	3.89037
8.2	3.89136
8.21	3.89037
8.22	3.89136
8.23	3.89465
8.24	3.88873
8.25	3.88906
8.26	3.8884
8.27	3.88675
8.28	3.89004
8.29	3.88741
8.3	3.8884
8.31	3.88807
8.32	3.88873
8.33	3.88741
8.34	3.88544
8.35	3.88281
8.36	3.87985
8.37	3.88116
8.38	3.8782
8.39	3.87327
8.4	3.87491
8.41	3.87886
8.42	3.87721
8.43	3.87425
8.44	3.87031
8.45	3.87294
8.46	3.87359
8.47	3.87425
8.48	3.87623
8.49	3.87096
8.5	3.87359
8.51	3.87392
8.52	3.86965
8.53	3.86932
8.54	3.86504
8.55	3.86603
8.56	3.85978
8.57	3.86702
8.58	3.86406
8.59	3.86208
8.6	3.85945
8.61	3.86011
8.62	3.85978
8.63	3.86142
8.64	3.86175
8.65	3.85517
8.66	3.8555
8.67	3.85452
8.68	3.85057
8.69	3.85024
8.7	3.84794
8.71	3.84958
8.72	3.84695
8.73	3.85024
8.74	3.84366
8.75	3.84563
8.76	3.84465
8.77	3.84662
8.78	3.85254
8.79	3.84892
8.8	3.84596
8.81	3.84136
8.82	3.84333
8.83	3.843
8.84	3.84103
8.85	3.84234
8.86	3.8407
8.87	3.83741
8.88	3.8407
8.89	3.83905
8.9	3.84037
8.91	3.83741
8.92	3.83807
8.93	3.83083
8.94	3.83708
8.95	3.83675
8.96	3.83576
8.97	3.83478
8.98	3.8305
8.99	3.82984
9	3.83149
9.01	3.8282
9.02	3.82984
9.03	3.83313
9.04	3.83215
9.05	3.83017
9.06	3.83116
9.07	3.83478
9.08	3.83511
9.09	3.83313
9.1	3.82721
9.11	3.82951
9.12	3.83182
9.13	3.82688
9.14	3.83083
9.15	3.82984
9.16	3.83017
9.17	3.83017
9.18	3.82688
9.19	3.82261
9.2	3.82655
9.21	3.82623
9.22	3.82524
9.23	3.82326
9.24	3.818
9.25	3.82623
9.26	3.82721
9.27	3.82096
9.28	3.82063
9.29	3.81734
9.3	3.81701
9.31	3.81965
9.32	3.82063
9.33	3.81471
9.34	3.81537
9.35	3.81701
9.36	3.81175
9.37	3.8134
9.38	3.80945
9.39	3.81044
9.4	3.81011
9.41	3.81274
9.42	3.81011
9.43	3.80616
9.44	3.80945
9.45	3.80945
9.46	3.81142
9.47	3.80451
9.48	3.81044
9.49	3.80616
9.5	3.80583
9.51	3.81175
9.52	3.80945
9.53	3.80418
9.54	3.80418
9.55	3.80287
9.56	3.80484
9.57	3.80353
9.58	3.8009
9.59	3.80254
9.6	3.80155
9.61	3.80287
9.62	3.80155
9.63	3.80517
9.64	3.8032
9.65	3.79563
9.66	3.79859
9.67	3.80122
9.68	3.80353
9.69	3.79892
9.7	3.79465
9.71	3.79596
9.72	3.79892
9.73	3.79859
9.74	3.79563
9.75	3.79958
9.76	3.7953
9.77	3.79168
9.78	3.79793
9.79	3.79892
9.8	3.79859
9.81	3.79596
9.82	3.78839
9.83	3.79234
9.84	3.79201
9.85	3.79136
9.86	3.793
9.87	3.78971
9.88	3.79037
9.89	3.78642
9.9	3.78938
9.91	3.78247
9.92	3.78445
9.93	3.78609
9.94	3.78642
9.95	3.78412
9.96	3.78313
9.97	3.78247
9.98	3.78346
9.99	3.78182
10	3.77951
10.01	3.78313
10.02	3.78511
10.03	3.78083
10.04	3.77754
10.05	3.7782
10.06	3.77622
10.07	3.7828
10.08	3.78346
10.09	3.77787
10.1	3.77688
10.11	3.78083
10.12	3.7805
10.13	3.77622
10.14	3.78182
10.15	3.77787
10.16	3.7805
10.17	3.77886
10.18	3.77984
10.19	3.77458
10.2	3.77063
10.21	3.7782
10.22	3.77524
10.23	3.7782
10.24	3.77886
10.25	3.77524
10.26	3.77096
10.27	3.77359
10.28	3.7726
10.29	3.77458
10.3	3.77392
10.31	3.7726
10.32	3.7703
10.33	3.76866
10.34	3.7657
10.35	3.76899
10.36	3.76964
10.37	3.7726
10.38	3.77458
10.39	3.77326
10.4	3.76932
10.41	3.76964
10.42	3.76964
10.43	3.7703
10.44	3.77326
10.45	3.7726
10.46	3.76668
10.47	3.7657
10.48	3.76372
10.49	3.76405
10.5	3.77162
10.51	3.76603
10.52	3.76405
10.53	3.76471
10.54	3.77228
10.55	3.768
10.56	3.76701
10.57	3.768
10.58	3.76504
10.59	3.76175
10.6	3.76504
10.61	3.7657
10.62	3.77228
10.63	3.76438
10.64	3.76833
10.65	3.76043
10.66	3.76175
10.67	3.76208
10.68	3.76208
10.69	3.76471
10.7	3.77096
10.71	3.76142
10.72	3.76109
10.73	3.76438
10.74	3.75813
10.75	3.76438
10.76	3.76603
10.77	3.75912
10.78	3.75616
10.79	3.75714
10.8	3.76175
10.81	3.75879
10.82	3.75813
10.83	3.75912
10.84	3.75418
10.85	3.75418
10.86	3.7555
10.87	3.75945
10.88	3.76142
10.89	3.75616
10.9	3.75484
10.91	3.75846
10.92	3.7578
10.93	3.75484
10.94	3.74958
10.95	3.75254
10.96	3.75385
10.97	3.7532
10.98	3.75287
10.99	3.75418
11	3.75517
11.01	3.75681
11.02	3.75122
11.03	3.75681
11.04	3.7555
11.05	3.75122
11.06	3.74859
11.07	3.7476
11.08	3.75221
11.09	3.75056
11.1	3.75188
11.11	3.74958
11.12	3.75155
11.13	3.75385
11.14	3.75221
11.15	3.75353
11.16	3.7532
11.17	3.75122
11.18	3.75024
11.19	3.7555
11.2	3.75813
11.21	3.75188
11.22	3.75517
11.23	3.75616
11.24	3.75418
11.25	3.75089
11.26	3.75747
11.27	3.74991
11.28	3.7476
11.29	3.74991
11.3	3.74431
11.31	3.7453
11.32	3.74431
11.33	3.74728
11.34	3.74662
11.35	3.75024
11.36	3.74431
11.37	3.74168
11.38	3.74991
11.39	3.74728
11.4	3.74497
11.41	3.74333
11.42	3.74497
11.43	3.74366
11.44	3.74563
11.45	3.74497
11.46	3.74333
11.47	3.74399
11.48	3.74431
11.49	3.74201
11.5	3.73971
11.51	3.73971
11.52	3.73971
11.53	3.7453
11.54	3.74168
11.55	3.74004
11.56	3.73806
11.57	3.73642
11.58	3.74037
11.59	3.73379
11.6	3.73247
11.61	3.73214
11.62	3.73642
11.63	3.73708
11.64	3.74037
11.65	3.73445
11.66	3.73905
11.67	3.73872
11.68	3.73741
11.69	3.73543
11.7	3.7328
11.71	3.73247
11.72	3.7351
11.73	3.73214
11.74	3.73412
11.75	3.73477
11.76	3.72852
11.77	3.73214
11.78	3.73938
11.79	3.73017
11.8	3.72721
11.81	3.7305
11.82	3.73708
11.83	3.73116
11.84	3.73346
11.85	3.73609
11.86	3.72951
11.87	3.73181
11.88	3.73445
11.89	3.73116
11.9	3.73149
11.91	3.73445
11.92	3.7328
11.93	3.72951
11.94	3.73214
11.95	3.73017
11.96	3.72984
11.97	3.72885
11.98	3.72984
11.99	3.7305
12	3.73214
12.01	3.7282
12.02	3.72852
12.03	3.72688
12.04	3.72491
12.05	3.72293
12.06	3.72227
12.07	3.7226
12.08	3.72787
12.09	3.73017
12.1	3.71964
12.11	3.72622
12.12	3.72523
12.13	3.72491
12.14	3.72721
12.15	3.72392
12.16	3.7226
12.17	3.72195
12.18	3.72326
12.19	3.72622
12.2	3.72852
12.21	3.71833
12.22	3.72096
12.23	3.71833
12.24	3.72162
12.25	3.71997
12.26	3.72096
12.27	3.72326
12.28	3.72787
12.29	3.72589
12.3	3.71964
12.31	3.71997
12.32	3.7203
12.33	3.7203
12.34	3.7157
12.35	3.71504
12.36	3.72063
12.37	3.72326
12.38	3.72129
12.39	3.71997
12.4	3.71964
12.41	3.71701
12.42	3.71833
12.43	3.71504
12.44	3.71734
12.45	3.72063
12.46	3.71898
12.47	3.71898
12.48	3.72293
12.49	3.7157
12.5	3.71931
12.51	3.71602
12.52	3.7157
12.53	3.71898
12.54	3.71668
12.55	3.71701
12.56	3.71602
12.57	3.71734
12.58	3.71142
12.59	3.71339
12.6	3.71405
12.61	3.718
12.62	3.71833
12.63	3.71438
12.64	3.71504
12.65	3.71767
12.66	3.71734
12.67	3.71175
12.68	3.71241
12.69	3.70879
12.7	3.71109
12.71	3.7157
12.72	3.71471
12.73	3.72162
12.74	3.71997
12.75	3.71208
12.76	3.71109
12.77	3.71438
12.78	3.71504
12.79	3.71339
12.8	3.71339
12.81	3.71175
12.82	3.71175
12.83	3.71833
12.84	3.71537
12.85	3.71339
12.86	3.71273
12.87	3.71339
12.88	3.71241
12.89	3.71734
12.9	3.71537
12.91	3.71175
12.92	3.71339
12.93	3.71043
12.94	3.70944
12.95	3.71175
12.96	3.71076
12.97	3.71273
12.98	3.71537
12.99	3.71339
13	3.71175
13.01	3.71076
13.02	3.71438
13.03	3.71635
13.04	3.71405
13.05	3.71109
13.06	3.71208
13.07	3.70714
13.08	3.70977
13.09	3.71175
13.1	3.70813
13.11	3.71339
13.12	3.71306
13.13	3.71241
13.14	3.70879
13.15	3.70254
13.16	3.70319
13.17	3.70418
13.18	3.71043
13.19	3.70879
13.2	3.71175
13.21	3.71076
13.22	3.70944
13.23	3.7078
13.24	3.70681
13.25	3.70287
13.26	3.70583
13.27	3.70681
13.28	3.7078
13.29	3.70484
13.3	3.70714
13.31	3.70648
13.32	3.71142
13.33	3.70287
13.34	3.7101
13.35	3.70089
13.36	3.69892
13.37	3.70352
13.38	3.70648
13.39	3.70517
13.4	3.70254
13.41	3.70418
13.42	3.70484
13.43	3.70648
13.44	3.70616
13.45	3.70616
13.46	3.70583
13.47	3.70254
13.48	3.70681
13.49	3.70648
13.5	3.70385
13.51	3.70484
13.52	3.70813
13.53	3.70813
13.54	3.70714
13.55	3.69958
13.56	3.70385
13.57	3.69958
13.58	3.70287
13.59	3.70418
13.6	3.70188
13.61	3.69925
13.62	3.70155
13.63	3.70188
13.64	3.70583
13.65	3.70681
13.66	3.70747
13.67	3.70846
13.68	3.70616
13.69	3.70089
13.7	3.70089
13.71	3.70583
13.72	3.70352
13.73	3.69859
13.74	3.70385
13.75	3.69826
13.76	3.70451
13.77	3.70254
13.78	3.70879
13.79	3.70747
13.8	3.70287
13.81	3.70089
13.82	3.70056
13.83	3.70385
13.84	3.70056
13.85	3.7055
13.86	3.70188
13.87	3.70023
13.88	3.70319
13.89	3.70287
13.9	3.70418
13.91	3.69563
13.92	3.69662
13.93	3.69464
13.94	3.70287
13.95	3.69892
13.96	3.70122
13.97	3.70056
13.98	3.69826
13.99	3.69596
14	3.69629
14.01	3.69431
14.02	3.69694
14.03	3.69727
14.04	3.69497
14.05	3.70221
14.06	3.69892
14.07	3.69826
14.08	3.69464
14.09	3.693
14.1	3.69464
14.11	3.69596
14.12	3.69431
14.13	3.69563
14.14	3.69793
14.15	3.69135
14.16	3.69201
14.17	3.69431
14.18	3.69365
14.19	3.69859
14.2	3.69267
14.21	3.69069
14.22	3.69168
14.23	3.68938
14.24	3.69398
14.25	3.69958
14.26	3.69596
14.27	3.69365
14.28	3.69464
14.29	3.6976
14.3	3.69398
14.31	3.693
14.32	3.69102
14.33	3.69859
14.34	3.69694
14.35	3.69234
14.36	3.69563
14.37	3.69004
14.38	3.68971
14.39	3.69069
14.4	3.69563
14.41	3.69234
14.42	3.69629
14.43	3.69727
14.44	3.69694
14.45	3.69629
14.46	3.693
14.47	3.69431
14.48	3.69497
14.49	3.69596
14.5	3.69958
14.51	3.69365
14.52	3.69234
14.53	3.69267
14.54	3.69267
14.55	3.69694
14.56	3.69267
14.57	3.69267
14.58	3.69563
14.59	3.69431
14.6	3.69398
14.61	3.69102
14.62	3.693
14.63	3.69168
14.64	3.69069
14.65	3.68905
14.66	3.6851
14.67	3.68806
14.68	3.68938
14.69	3.68971
14.7	3.68576
14.71	3.68675
14.72	3.69201
14.73	3.69135
14.74	3.69135
14.75	3.69004
14.76	3.69102
14.77	3.68675
14.78	3.68412
14.79	3.6851
14.8	3.68806
14.81	3.68773
14.82	3.68346
14.83	3.6851
14.84	3.68708
14.85	3.68675
14.86	3.68444
14.87	3.68214
14.88	3.68576
14.89	3.68444
14.9	3.6851
14.91	3.6851
14.92	3.68609
14.93	3.6851
14.94	3.68609
14.95	3.68346
14.96	3.68543
14.97	3.68806
14.98	3.6851
14.99	3.69069
15	3.68576
15.01	3.68412
15.02	3.67918
15.03	3.68477
15.04	3.68872
15.05	3.68872
15.06	3.68675
15.07	3.6851
15.08	3.68938
15.09	3.6874
15.1	3.68905
15.11	3.68543
15.12	3.68773
15.13	3.68642
15.14	3.6874
15.15	3.69398
15.16	3.68806
15.17	3.6851
15.18	3.6828
15.19	3.68708
15.2	3.68214
15.21	3.6828
15.22	3.6805
15.23	3.68708
15.24	3.68905
15.25	3.68346
15.26	3.67984
15.27	3.68806
15.28	3.6851
15.29	3.6828
15.3	3.6851
15.31	3.67885
15.32	3.6805
15.33	3.68379
15.34	3.68379
15.35	3.68247
15.36	3.67786
15.37	3.68115
15.38	3.67819
15.39	3.68017
15.4	3.67951
15.41	3.67951
15.42	3.67819
15.43	3.67754
15.44	3.6805
15.45	3.67885
15.46	3.67721
15.47	3.67984
15.48	3.67589
15.49	3.67819
15.5	3.67918
15.51	3.67655
15.52	3.67688
15.53	3.67523
15.54	3.67885
15.55	3.68083
15.56	3.68379
15.57	3.68148
15.58	3.68181
15.59	3.68247
15.6	3.68346
15.61	3.67819
15.62	3.68872
15.63	3.68477
15.64	3.68247
15.65	3.6851
15.66	3.68017
15.67	3.68412
15.68	3.68543
15.69	3.6828
15.7	3.68115
15.71	3.68642
15.72	3.68477
15.73	3.68148
15.74	3.68346
15.75	3.68017
15.76	3.68181
15.77	3.68346
15.78	3.68412
15.79	3.68148
15.8	3.67885
15.81	3.68083
15.82	3.68148
15.83	3.68313
15.84	3.6851
15.85	3.68214
15.86	3.68477
15.87	3.68543
15.88	3.68214
15.89	3.68444
15.9	3.67819
15.91	3.68148
15.92	3.68247
15.93	3.67688
15.94	3.67819
15.95	3.67754
15.96	3.67655
15.97	3.68214
15.98	3.68017
15.99	3.67523
16	3.67458
16.01	3.67589
16.02	3.67556
16.03	3.68181
16.04	3.67885
16.05	3.67326
16.06	3.67688
16.07	3.67326
16.08	3.67293
16.09	3.67852
16.1	3.67688
16.11	3.67754
16.12	3.6749
16.13	3.67819
16.14	3.6805
16.15	3.67523
16.16	3.67622
16.17	3.66997
16.18	3.66767
16.19	3.67227
16.2	3.67754
16.21	3.66865
16.22	3.67359
16.23	3.67425
16.24	3.6726
16.25	3.67425
16.26	3.67786
16.27	3.6749
16.28	3.67523
16.29	3.68017
16.3	3.67523
16.31	3.6749
16.32	3.67622
16.33	3.67359
16.34	3.67392
16.35	3.67523
16.36	3.67655
16.37	3.67392
16.38	3.67852
16.39	3.67293
16.4	3.67688
16.41	3.67458
16.42	3.67425
16.43	3.67622
16.44	3.67523
16.45	3.67589
16.46	3.67721
16.47	3.67786
16.48	3.67622
16.49	3.67951
16.5	3.67622
16.51	3.67688
16.52	3.67392
16.53	3.67721
16.54	3.6749
16.55	3.67819
16.56	3.67523
16.57	3.67425
16.58	3.67622
16.59	3.67227
16.6	3.67194
16.61	3.67852
16.62	3.67392
16.63	3.67458
16.64	3.67523
16.65	3.66931
16.66	3.66931
16.67	3.6749
16.68	3.6726
16.69	3.67556
16.7	3.67194
16.71	3.67984
16.72	3.6726
16.73	3.67326
16.74	3.67458
16.75	3.67227
16.76	3.67161
16.77	3.67129
16.78	3.67129
16.79	3.67161
16.8	3.66964
16.81	3.67096
16.82	3.66734
16.83	3.66964
16.84	3.66734
16.85	3.66865
16.86	3.66865
16.87	3.66931
16.88	3.66898
16.89	3.66635
16.9	3.66536
16.91	3.67063
16.92	3.66964
16.93	3.6703
16.94	3.66668
16.95	3.66635
16.96	3.66997
16.97	3.66931
16.98	3.66767
16.99	3.67194
17	3.66865
17.01	3.66767
17.02	3.668
17.03	3.668
17.04	3.66569
17.05	3.66865
17.06	3.67063
17.07	3.66602
17.08	3.66734
17.09	3.668
17.1	3.66635
17.11	3.66931
17.12	3.66306
17.13	3.66306
17.14	3.66536
17.15	3.66898
17.16	3.66898
17.17	3.66504
17.18	3.66471
17.19	3.66833
17.2	3.66701
17.21	3.66833
17.22	3.66833
17.23	3.66898
17.24	3.66602
17.25	3.66536
17.26	3.668
17.27	3.66865
17.28	3.66635
17.29	3.66471
17.3	3.66701
17.31	3.66668
17.32	3.66898
17.33	3.66339
17.34	3.66767
17.35	3.66734
17.36	3.66504
17.37	3.66602
17.38	3.66668
17.39	3.66602
17.4	3.66372
17.41	3.66076
17.42	3.66536
17.43	3.66701
17.44	3.668
17.45	3.66734
17.46	3.66865
17.47	3.66306
17.48	3.66767
17.49	3.66504
17.5	3.66569
17.51	3.66339
17.52	3.66898
17.53	3.66471
17.54	3.66668
17.55	3.66175
17.56	3.6624
17.57	3.66405
17.58	3.66405
17.59	3.66997
17.6	3.65944
17.61	3.6624
17.62	3.66109
17.63	3.66405
17.64	3.66339
17.65	3.66471
17.66	3.66405
17.67	3.66504
17.68	3.66142
17.69	3.66701
17.7	3.66043
17.71	3.66273
17.72	3.66405
17.73	3.66504
17.74	3.66405
17.75	3.66602
17.76	3.66339
17.77	3.66668
17.78	3.66405
17.79	3.66273
17.8	3.66602
17.81	3.66109
17.82	3.66438
17.83	3.6726
17.84	3.66504
17.85	3.6624
17.86	3.65944
17.87	3.66339
17.88	3.66339
17.89	3.66372
17.9	3.65615
17.91	3.66175
17.92	3.66175
17.93	3.66339
17.94	3.66273
17.95	3.66306
17.96	3.66306
17.97	3.66306
17.98	3.65944
17.99	3.66175
18	3.66405
18.01	3.66668
18.02	3.66405
18.03	3.66372
18.04	3.66109
18.05	3.66142
18.06	3.66076
18.07	3.66405
18.08	3.66865
18.09	3.66701
18.1	3.66109
18.11	3.66043
18.12	3.6624
18.13	3.66109
18.14	3.66076
18.15	3.66142
18.16	3.66405
18.17	3.6624
18.18	3.65911
18.19	3.65977
18.2	3.65944
18.21	3.6601
18.22	3.65846
18.23	3.66339
18.24	3.66405
18.25	3.66043
18.26	3.66405
18.27	3.66142
18.28	3.65418
18.29	3.66339
18.3	3.66043
18.31	3.66109
18.32	3.66471
18.33	3.65944
18.34	3.6601
18.35	3.66471
18.36	3.66668
18.37	3.67161
18.38	3.66898
18.39	3.66405
18.4	3.66405
18.41	3.66339
18.42	3.66339
18.43	3.66339
18.44	3.66372
18.45	3.66076
18.46	3.66405
18.47	3.66536
18.48	3.66306
18.49	3.6578
18.5	3.66142
18.51	3.6624
18.52	3.66372
18.53	3.66273
18.54	3.65747
18.55	3.6601
18.56	3.66339
18.57	3.66536
18.58	3.65977
18.59	3.66109
18.6	3.65879
18.61	3.65813
18.62	3.6624
18.63	3.66175
18.64	3.65813
18.65	3.65582
18.66	3.65977
18.67	3.6578
18.68	3.6601
18.69	3.66207
18.7	3.66109
18.71	3.66109
18.72	3.65879
18.73	3.65879
18.74	3.66043
18.75	3.65944
18.76	3.65846
18.77	3.65319
18.78	3.65879
18.79	3.65911
18.8	3.65747
18.81	3.65911
18.82	3.65944
18.83	3.65944
18.84	3.65846
18.85	3.65648
18.86	3.65911
18.87	3.6578
18.88	3.65944
18.89	3.65385
18.9	3.65681
18.91	3.6555
18.92	3.6499
18.93	3.65813
18.94	3.65615
18.95	3.65681
18.96	3.65188
18.97	3.65286
18.98	3.65813
18.99	3.65714
19	3.65714
19.01	3.65846
19.02	3.65418
19.03	3.65648
19.04	3.65714
19.05	3.65385
19.06	3.65188
19.07	3.65221
19.08	3.65418
19.09	3.65352
19.1	3.65813
19.11	3.6555
19.12	3.65517
19.13	3.65879
19.14	3.65582
19.15	3.65517
19.16	3.65615
19.17	3.66109
19.18	3.6578
19.19	3.65484
19.2	3.65286
19.21	3.65879
19.22	3.6601
19.23	3.65517
19.24	3.65517
19.25	3.65747
19.26	3.66175
19.27	3.65846
19.28	3.65747
19.29	3.65254
19.3	3.65155
19.31	3.65582
19.32	3.65846
19.33	3.65254
19.34	3.6601
19.35	3.65648
19.36	3.65615
19.37	3.65418
19.38	3.66109
19.39	3.65747
19.4	3.6499
19.41	3.65319
19.42	3.65352
19.43	3.65056
19.44	3.65517
19.45	3.65517
19.46	3.65451
19.47	3.65385
19.48	3.65879
19.49	3.65911
19.5	3.65582
19.51	3.65517
19.52	3.65615
19.53	3.65517
19.54	3.65517
19.55	3.65813
19.56	3.65615
19.57	3.65714
19.58	3.65879
19.59	3.65451
19.6	3.65155
19.61	3.65582
19.62	3.65319
19.63	3.65484
19.64	3.65484
19.65	3.65714
19.66	3.65648
19.67	3.65319
19.68	3.64892
19.69	3.65714
19.7	3.65418
19.71	3.65385
19.72	3.65484
19.73	3.65221
19.74	3.6555
19.75	3.65648
19.76	3.66142
19.77	3.65385
19.78	3.65122
19.79	3.6499
19.8	3.64727
19.81	3.65023
19.82	3.65582
19.83	3.65221
19.84	3.65517
19.85	3.65484
19.86	3.65155
19.87	3.65188
19.88	3.65122
19.89	3.64826
19.9	3.65319
19.91	3.65056
19.92	3.6453
19.93	3.64727
19.94	3.64925
19.95	3.65122
19.96	3.64497
19.97	3.64925
19.98	3.65056
19.99	3.65254
20	3.65056
20.01	3.65188
20.02	3.64793
20.03	3.64431
20.04	3.64925
20.05	3.64826
20.06	3.64793
20.07	3.64793
20.08	3.64925
20.09	3.65056
20.1	3.64957
20.11	3.6453
20.12	3.64892
20.13	3.64694
20.14	3.65188
20.15	3.65385
20.16	3.6499
20.17	3.64892
20.18	3.65089
20.19	3.65155
20.2	3.64859
20.21	3.64464
20.22	3.65056
20.23	3.65352
20.24	3.64793
20.25	3.65451
20.26	3.65319
20.27	3.65352
20.28	3.65254
20.29	3.65484
20.3	3.65221
20.31	3.65122
20.32	3.65451
20.33	3.65352
20.34	3.65089
20.35	3.65122
20.36	3.65122
20.37	3.65056
20.38	3.64727
20.39	3.65286
20.4	3.64957
20.41	3.65023
20.42	3.65023
20.43	3.6555
20.44	3.65155
20.45	3.65319
20.46	3.64925
20.47	3.64497
20.48	3.6453
20.49	3.64826
20.5	3.65155
20.51	3.64628
20.52	3.64793
20.53	3.64892
20.54	3.6453
20.55	3.65056
20.56	3.64628
20.57	3.64957
20.58	3.65155
20.59	3.64727
20.6	3.64497
20.61	3.64859
20.62	3.64826
20.63	3.64859
20.64	3.64694
20.65	3.64694
20.66	3.6499
20.67	3.64332
20.68	3.64563
20.69	3.64563
20.7	3.65122
20.71	3.64957
20.72	3.65056
20.73	3.64957
20.74	3.65517
20.75	3.6499
20.76	3.64826
20.77	3.64793
20.78	3.65056
20.79	3.6555
20.8	3.65451
20.81	3.65648
20.82	3.65155
20.83	3.64826
20.84	3.64859
20.85	3.65056
20.86	3.64628
20.87	3.65188
20.88	3.65089
20.89	3.64431
20.9	3.64563
20.91	3.65155
20.92	3.64925
20.93	3.6476
20.94	3.64957
20.95	3.64957
20.96	3.64398
20.97	3.6453
20.98	3.643
20.99	3.64793
21	3.65089
21.01	3.64826
21.02	3.64628
21.03	3.64957
21.04	3.64596
21.05	3.65056
21.06	3.6476
21.07	3.64332
21.08	3.64497
21.09	3.64661
21.1	3.64826
21.11	3.64563
21.12	3.64332
21.13	3.64332
21.14	3.64365
21.15	3.64694
21.16	3.64365
21.17	3.64464
21.18	3.64135
21.19	3.64102
21.2	3.64168
21.21	3.643
21.22	3.64102
21.23	3.65188
21.24	3.643
21.25	3.64201
21.26	3.64234
21.27	3.63971
21.28	3.64892
21.29	3.64267
21.3	3.64398
21.31	3.64628
21.32	3.64365
21.33	3.64628
21.34	3.64168
21.35	3.64003
21.36	3.64563
21.37	3.63938
21.38	3.64497
21.39	3.64826
21.4	3.64069
21.41	3.64661
21.42	3.64398
21.43	3.64596
21.44	3.64168
21.45	3.6453
21.46	3.65023
21.47	3.64464
21.48	3.64234
21.49	3.643
21.5	3.64464
21.51	3.64727
21.52	3.64563
21.53	3.64596
21.54	3.64826
21.55	3.64661
21.56	3.64793
21.57	3.64925
21.58	3.6453
21.59	3.6453
21.6	3.6476
21.61	3.64727
21.62	3.65122
21.63	3.64892
21.64	3.64628
21.65	3.6453
21.66	3.64563
21.67	3.64727
21.68	3.6476
21.69	3.64925
21.7	3.6453
21.71	3.64069
21.72	3.64694
21.73	3.64859
21.74	3.64234
21.75	3.64102
21.76	3.643
21.77	3.64201
21.78	3.64168
21.79	3.643
21.8	3.64332
21.81	3.64398
21.82	3.64332
21.83	3.63971
21.84	3.64003
21.85	3.6453
21.86	3.64003
21.87	3.64003
21.88	3.64069
21.89	3.63938
21.9	3.64102
21.91	3.64036
21.92	3.64168
21.93	3.64201
21.94	3.63642
21.95	3.63642
21.96	3.64168
21.97	3.64168
21.98	3.64168
21.99	3.64036
22	3.63938
22.01	3.64036
22.02	3.64069
22.03	3.63971
22.04	3.63675
22.05	3.643
22.06	3.63938
22.07	3.63477
22.08	3.63247
22.09	3.63806
22.1	3.64332
22.11	3.63905
22.12	3.64036
22.13	3.64267
22.14	3.64102
22.15	3.63806
22.16	3.64365
22.17	3.63938
22.18	3.64464
22.19	3.64365
22.2	3.64234
22.21	3.64168
22.22	3.64694
22.23	3.6476
22.24	3.64464
22.25	3.64398
22.26	3.63839
22.27	3.63971
22.28	3.643
22.29	3.6453
22.3	3.64102
22.31	3.6453
22.32	3.64069
22.33	3.63872
22.34	3.64168
22.35	3.64168
22.36	3.64267
22.37	3.64365
22.38	3.643
22.39	3.63642
22.4	3.63905
22.41	3.63675
22.42	3.63905
22.43	3.64003
22.44	3.63773
22.45	3.643
22.46	3.64036
22.47	3.63905
22.48	3.64003
22.49	3.63773
22.5	3.63675
22.51	3.63938
22.52	3.64003
22.53	3.64003
22.54	3.63938
22.55	3.63938
22.56	3.64102
22.57	3.6351
22.58	3.63214
22.59	3.63675
22.6	3.63971
22.61	3.63839
22.62	3.63378
22.63	3.63872
22.64	3.64267
22.65	3.63971
22.66	3.64003
22.67	3.63905
22.68	3.6374
22.69	3.63675
22.7	3.63313
22.71	3.63378
22.72	3.64069
22.73	3.64168
22.74	3.63806
22.75	3.63444
22.76	3.63707
22.77	3.63477
22.78	3.63543
22.79	3.63148
22.8	3.63313
22.81	3.63115
22.82	3.6328
22.83	3.64135
22.84	3.63642
22.85	3.63411
22.86	3.62951
22.87	3.63609
22.88	3.63839
22.89	3.6374
22.9	3.63477
22.91	3.63642
22.92	3.63806
22.93	3.63609
22.94	3.63444
22.95	3.6374
22.96	3.63675
22.97	3.63642
22.98	3.63839
22.99	3.63872
23	3.63872
23.01	3.63609
23.02	3.63313
23.03	3.63675
23.04	3.63642
23.05	3.63181
23.06	3.63247
23.07	3.63477
23.08	3.63806
23.09	3.63905
23.1	3.63609
23.11	3.64135
23.12	3.64003
23.13	3.643
23.14	3.63378
23.15	3.63444
23.16	3.63872
23.17	3.63609
23.18	3.63378
23.19	3.63444
23.2	3.63444
23.21	3.64168
23.22	3.63642
23.23	3.63576
23.24	3.63872
23.25	3.6305
23.26	3.63642
23.27	3.63839
23.28	3.6328
23.29	3.63477
23.3	3.6351
23.31	3.62918
23.32	3.63214
23.33	3.64102
23.34	3.64069
23.35	3.63609
23.36	3.62885
23.37	3.63214
23.38	3.63214
23.39	3.63214
23.4	3.63477
23.41	3.63806
23.42	3.63444
23.43	3.6328
23.44	3.62951
23.45	3.63642
23.46	3.63707
23.47	3.63115
23.48	3.63181
23.49	3.63576
23.5	3.6328
23.51	3.63642
23.52	3.63444
23.53	3.63609
23.54	3.63411
23.55	3.62885
23.56	3.63017
23.57	3.64069
23.58	3.63773
23.59	3.6351
23.6	3.63411
23.61	3.63247
23.62	3.63642
23.63	3.63247
23.64	3.63609
23.65	3.63477
23.66	3.63181
23.67	3.63082
23.68	3.6305
23.69	3.63576
23.7	3.63082
23.71	3.63247
23.72	3.64135
23.73	3.63905
23.74	3.64036
23.75	3.6328
23.76	3.6305
23.77	3.63576
23.78	3.63609
23.79	3.63642
23.8	3.63609
23.81	3.63313
23.82	3.6351
23.83	3.63148
23.84	3.63444
23.85	3.62753
23.86	3.63214
23.87	3.63444
23.88	3.63378
23.89	3.63411
23.9	3.63444
23.91	3.6351
23.92	3.63576
23.93	3.6374
23.94	3.63576
23.95	3.63675
23.96	3.63313
23.97	3.62721
23.98	3.62984
23.99	3.63148
24	3.63378
24.01	3.63576
24.02	3.6351
24.03	3.63675
24.04	3.63181
24.05	3.6374
24.06	3.63214
24.07	3.63148
24.08	3.63247
24.09	3.63477
24.1	3.62786
24.11	3.63247
24.12	3.63411
24.13	3.63411
24.14	3.63346
24.15	3.63642
24.16	3.62819
24.17	3.62885
24.18	3.6305
24.19	3.63148
24.2	3.6328
24.21	3.63313
24.22	3.63543
24.23	3.63148
24.24	3.6328
24.25	3.62786
24.26	3.62984
24.27	3.62688
24.28	3.62523
24.29	3.62984
24.3	3.62885
24.31	3.63115
24.32	3.62852
24.33	3.62721
24.34	3.6305
24.35	3.62819
24.36	3.62786
24.37	3.62721
24.38	3.63017
24.39	3.62786
24.4	3.62753
24.41	3.62819
24.42	3.6351
24.43	3.63346
24.44	3.63247
24.45	3.62819
24.46	3.62852
24.47	3.63115
24.48	3.62984
24.49	3.63247
24.5	3.63346
24.51	3.63543
24.52	3.63148
24.53	3.63543
24.54	3.63148
24.55	3.6351
24.56	3.63214
24.57	3.6305
24.58	3.6328
24.59	3.63148
24.6	3.63346
24.61	3.63148
24.62	3.63115
24.63	3.63115
24.64	3.63148
24.65	3.62589
24.66	3.62852
24.67	3.63115
24.68	3.63346
24.69	3.63543
24.7	3.63082
24.71	3.62852
24.72	3.62951
24.73	3.62753
24.74	3.63181
24.75	3.63609
24.76	3.63609
24.77	3.63115
24.78	3.63313
24.79	3.62885
24.8	3.62852
24.81	3.63707
24.82	3.63543
24.83	3.63346
24.84	3.63707
24.85	3.63017
24.86	3.62523
24.87	3.63313
24.88	3.63346
24.89	3.63247
24.9	3.62951
24.91	3.62951
24.92	3.63247
24.93	3.63346
24.94	3.6305
24.95	3.62819
24.96	3.62556
24.97	3.63082
24.98	3.63477
24.99	3.63247
25	3.63346
25.01	3.62918
25.02	3.62918
25.03	3.6203
25.04	3.62424
25.05	3.63017
25.06	3.62951
25.07	3.62951
25.08	3.62819
25.09	3.6305
25.1	3.62918
25.11	3.62589
25.12	3.63148
25.13	3.62819
25.14	3.62556
25.15	3.62424
25.16	3.62753
25.17	3.62688
25.18	3.63082
25.19	3.62721
25.2	3.63214
25.21	3.63082
25.22	3.62819
25.23	3.62227
25.24	3.62424
25.25	3.62786
25.26	3.62819
25.27	3.62359
25.28	3.62359
25.29	3.62885
25.3	3.62721
25.31	3.62753
25.32	3.62655
25.33	3.62424
25.34	3.62589
25.35	3.63115
25.36	3.63115
25.37	3.62852
25.38	3.62128
25.39	3.62359
25.4	3.62096
25.41	3.62161
25.42	3.62392
25.43	3.62721
25.44	3.63017
25.45	3.62819
25.46	3.62753
25.47	3.62128
25.48	3.62589
25.49	3.62096
25.5	3.62326
25.51	3.62589
25.52	3.62918
25.53	3.62556
25.54	3.62589
25.55	3.62819
25.56	3.62227
25.57	3.62359
25.58	3.62359
25.59	3.62556
25.6	3.6249
25.61	3.62523
25.62	3.62424
25.63	3.62984
25.64	3.62457
25.65	3.62523
25.66	3.62918
25.67	3.62589
25.68	3.63017
25.69	3.62852
25.7	3.63477
25.71	3.62885
25.72	3.62885
25.73	3.62819
25.74	3.62885
25.75	3.62688
25.76	3.62556
25.77	3.62457
25.78	3.62589
25.79	3.6249
25.8	3.62359
25.81	3.62753
25.82	3.62951
25.83	3.62951
25.84	3.62819
25.85	3.62622
25.86	3.62951
25.87	3.6226
25.88	3.62589
25.89	3.62721
25.9	3.62326
25.91	3.62688
25.92	3.62227
25.93	3.61997
25.94	3.62063
25.95	3.62227
25.96	3.62161
25.97	3.62227
25.98	3.61997
25.99	3.62161
26	3.62392
26.01	3.62424
26.02	3.62655
26.03	3.62523
26.04	3.62063
26.05	3.62392
26.06	3.62096
26.07	3.6203
26.08	3.62293
26.09	3.62392
26.1	3.6226
26.11	3.62655
26.12	3.62457
26.13	3.62753
26.14	3.62096
26.15	3.62326
26.16	3.62293
26.17	3.62786
26.18	3.62326
26.19	3.61964
26.2	3.62688
26.21	3.62392
26.22	3.62984
26.23	3.62293
26.24	3.62359
26.25	3.62457
26.26	3.6203
26.27	3.62622
26.28	3.62392
26.29	3.62589
26.3	3.62457
26.31	3.62556
26.32	3.62457
26.33	3.62096
26.34	3.6226
26.35	3.62293
26.36	3.62194
26.37	3.62227
26.38	3.62556
26.39	3.61931
26.4	3.62096
26.41	3.62128
26.42	3.6226
26.43	3.61569
26.44	3.62128
26.45	3.6249
26.46	3.62063
26.47	3.62161
26.48	3.62161
26.49	3.62194
26.5	3.62392
26.51	3.62161
26.52	3.61865
26.53	3.6203
26.54	3.61832
26.55	3.61668
26.56	3.62424
26.57	3.62096
26.58	3.61964
26.59	3.61964
26.6	3.61997
26.61	3.62326
26.62	3.62424
26.63	3.62326
26.64	3.62457
26.65	3.62227
26.66	3.62161
26.67	3.62622
26.68	3.62721
26.69	3.62589
26.7	3.62161
26.71	3.6203
26.72	3.62063
26.73	3.62721
26.74	3.62688
26.75	3.62096
26.76	3.62096
26.77	3.61931
26.78	3.62424
26.79	3.6226
26.8	3.62096
26.81	3.62688
26.82	3.62556
26.83	3.62293
26.84	3.62326
26.85	3.62161
26.86	3.61471
26.87	3.62359
26.88	3.6203
26.89	3.62359
26.9	3.62688
26.91	3.62392
26.92	3.61832
26.93	3.62424
26.94	3.61832
26.95	3.62457
26.96	3.62951
26.97	3.62326
26.98	3.62293
26.99	3.61997
27	3.62063
27.01	3.62161
27.02	3.62424
27.03	3.62753
27.04	3.62424
27.05	3.62457
27.06	3.62194
27.07	3.62523
27.08	3.62753
27.09	3.62688
27.1	3.61898
27.11	3.62424
27.12	3.62096
27.13	3.62161
27.14	3.62721
27.15	3.62721
27.16	3.62128
27.17	3.62227
27.18	3.62128
27.19	3.61964
27.2	3.62293
27.21	3.6226
27.22	3.61865
27.23	3.61799
27.24	3.61569
27.25	3.61536
27.26	3.62096
27.27	3.62063
27.28	3.61799
27.29	3.61536
27.3	3.61767
27.31	3.61701
27.32	3.61865
27.33	3.63247
27.34	3.6226
27.35	3.61405
27.36	3.61898
27.37	3.61865
27.38	3.61964
27.39	3.62128
27.4	3.62326
27.41	3.6203
27.42	3.61569
27.43	3.62424
27.44	3.61898
27.45	3.61109
27.46	3.6124
27.47	3.61931
27.48	3.61569
27.49	3.61799
27.5	3.61734
27.51	3.61471
27.52	3.61536
27.53	3.61602
27.54	3.61734
27.55	3.61372
27.56	3.61536
27.57	3.61372
27.58	3.6203
27.59	3.61997
27.6	3.62194
27.61	3.61668
27.62	3.61799
27.63	3.61701
27.64	3.61931
27.65	3.61799
27.66	3.61865
27.67	3.61536
27.68	3.61701
27.69	3.62424
27.7	3.62096
27.71	3.6226
27.72	3.62063
27.73	3.62359
27.74	3.61832
27.75	3.61898
27.76	3.61898
27.77	3.61767
27.78	3.61799
27.79	3.61734
27.8	3.6203
27.81	3.61865
27.82	3.61832
27.83	3.62326
27.84	3.62063
27.85	3.61964
27.86	3.61997
27.87	3.61931
27.88	3.62194
27.89	3.62096
27.9	3.61832
27.91	3.62424
27.92	3.6226
27.93	3.61898
27.94	3.61602
27.95	3.61701
27.96	3.61898
27.97	3.61799
27.98	3.62161
27.99	3.61174
28	3.61306
28.01	3.61635
28.02	3.61964
28.03	3.61865
28.04	3.61306
28.05	3.61734
28.06	3.61536
28.07	3.61503
28.08	3.61668
28.09	3.61602
28.1	3.61438
28.11	3.60911
28.12	3.60845
28.13	3.61569
28.14	3.61799
28.15	3.6124
28.16	3.6124
28.17	3.61832
28.18	3.61635
28.19	3.61339
28.2	3.60977
28.21	3.61372
28.22	3.61207
28.23	3.61602
28.24	3.61372
28.25	3.61865
28.26	3.61701
28.27	3.61799
28.28	3.6124
28.29	3.61701
28.3	3.61142
28.31	3.61043
28.32	3.61207
28.33	3.61339
28.34	3.61438
28.35	3.60944
28.36	3.60681
28.37	3.60977
28.38	3.61635
28.39	3.61339
28.4	3.61536
28.41	3.61602
28.42	3.61207
28.43	3.61668
28.44	3.61339
28.45	3.61273
28.46	3.61438
28.47	3.61174
28.48	3.61536
28.49	3.61339
28.5	3.61536
28.51	3.61964
28.52	3.61405
28.53	3.61174
28.54	3.61602
28.55	3.61767
28.56	3.61734
28.57	3.6101
28.58	3.61306
28.59	3.61372
28.6	3.61471
28.61	3.61174
28.62	3.6124
28.63	3.61471
28.64	3.61372
28.65	3.6124
28.66	3.61043
28.67	3.61734
28.68	3.61832
28.69	3.61306
28.7	3.61635
28.71	3.61865
28.72	3.61273
28.73	3.61438
28.74	3.61142
28.75	3.61503
28.76	3.61109
28.77	3.61273
28.78	3.61405
28.79	3.61207
28.8	3.6124
28.81	3.61701
28.82	3.61109
28.83	3.6124
28.84	3.61569
28.85	3.61273
28.86	3.61273
28.87	3.61405
28.88	3.61076
28.89	3.6124
28.9	3.61306
28.91	3.61471
28.92	3.61306
28.93	3.61273
28.94	3.61339
28.95	3.61174
28.96	3.61109
28.97	3.60813
28.98	3.60977
28.99	3.61273
29	3.61207
29.01	3.61109
29.02	3.61306
29.03	3.6124
29.04	3.61109
29.05	3.61207
29.06	3.6124
29.07	3.61076
29.08	3.61207
29.09	3.6078
29.1	3.60549
29.11	3.60714
29.12	3.61339
29.13	3.6124
29.14	3.61405
29.15	3.61339
29.16	3.61372
29.17	3.6101
29.18	3.61273
29.19	3.60977
29.2	3.61438
29.21	3.61306
29.22	3.61372
29.23	3.61536
29.24	3.61602
29.25	3.61734
29.26	3.61438
29.27	3.61536
29.28	3.61635
29.29	3.61306
29.3	3.61306
29.31	3.61372
29.32	3.61372
29.33	3.6124
29.34	3.61372
29.35	3.61865
29.36	3.61898
29.37	3.61536
29.38	3.61471
29.39	3.61306
29.4	3.61471
29.41	3.61207
29.42	3.60944
29.43	3.61273
29.44	3.61174
29.45	3.61471
29.46	3.61569
29.47	3.61043
29.48	3.61503
29.49	3.61536
29.5	3.61207
29.51	3.61174
29.52	3.61109
29.53	3.60845
29.54	3.61043
29.55	3.61372
29.56	3.61207
29.57	3.61405
29.58	3.61372
29.59	3.61339
29.6	3.61109
29.61	3.61306
29.62	3.6078
29.63	3.60944
29.64	3.61207
29.65	3.60845
29.66	3.61043
29.67	3.61701
29.68	3.6124
29.69	3.61142
29.7	3.61174
29.71	3.61306
29.72	3.61207
29.73	3.60582
29.74	3.60813
29.75	3.60155
29.76	3.60813
29.77	3.60813
29.78	3.60714
29.79	3.60878
29.8	3.60582
29.81	3.60977
29.82	3.60681
29.83	3.60977
29.84	3.6101
29.85	3.61339
29.86	3.61109
29.87	3.61076
29.88	3.60911
29.89	3.61405
29.9	3.61109
29.91	3.6078
29.92	3.61207
29.93	3.61142
29.94	3.61306
29.95	3.60648
29.96	3.6078
29.97	3.61438
29.98	3.6101
29.99	3.61207
30	3.61372
