"BIO-KINE ASCII FILE"
"_COMMENT"	"MOS-500 Spectrometer"
"_COMMENT"	"Kinetics measurement"
"_COMMENT"	"Y Unit : Volt,  X Unit : s"
"_COMMENT"	"Excitation wavelength : 380 nm"
"_COMMENT"	"Fentes bandwidth =  1 nm"
"_COMMENT"	"HV= 575V"
"_COMMENT"	"Timebase  1 =  .01 s   3001 pts"
"_SFM"	"SFM-400 /S  Advanced mode"
"_SFM"	"Ratio : S1: 2.5, S2: 0, S3: 0, S4: 1"
"_SFM"	"Content : S1: , S2: , S3: , S4:"
"_SFM"	"Concentration : S1: , S2: , S3: , S4:"
"_SFM"	"Total volume : 209 µl  Flow : 3.5 mL/s"
"_SFM"	"Acquisition start :  10 ms before stop"
"_SFM"	"cuve=FC-15, s1=10 ml , s2=10 ml , s3=10 ml , s4=1.9 ml"
"_UNITX"	"s"
"_UNITY"	"Volt"
"_DELTAX"	0
"_DATA"
1e-300	5.83616
0.01	6.22531
0.02	6.35163
0.03	6.38387
0.04	6.39275
0.05	6.39768
0.06	6.40591
0.07	6.41117
0.08	6.41676
0.09	6.4115
0.1	6.41446
0.11	6.4217
0.12	6.42762
0.13	6.42301
0.14	6.42466
0.15	6.42729
0.16	6.42236
0.17	6.42301
0.18	6.42104
0.19	6.41972
0.2	6.41676
0.21	6.41972
0.22	6.41249
0.23	6.41249
0.24	6.41084
0.25	6.41249
0.26	6.41051
0.27	6.40328
0.28	6.39966
0.29	6.3967
0.3	6.39736
0.31	6.39209
0.32	6.39538
0.33	6.39143
0.34	6.38321
0.35	6.38288
0.36	6.37992
0.37	6.37038
0.38	6.36578
0.39	6.37433
0.4	6.36742
0.41	6.3615
0.42	6.3592
0.43	6.35722
0.44	6.35097
0.45	6.34637
0.46	6.34275
0.47	6.34143
0.48	6.3388
0.49	6.33025
0.5	6.32433
0.51	6.3286
0.52	6.3217
0.53	6.31841
0.54	6.31117
0.55	6.30755
0.56	6.31018
0.57	6.30623
0.58	6.29768
0.59	6.29012
0.6	6.28452
0.61	6.28419
0.62	6.28551
0.63	6.28156
0.64	6.27597
0.65	6.26906
0.66	6.25952
0.67	6.26479
0.68	6.26183
0.69	6.26084
0.7	6.25854
0.71	6.24702
0.72	6.24538
0.73	6.23979
0.74	6.23946
0.75	6.23485
0.76	6.2286
0.77	6.22531
0.78	6.21972
0.79	6.21676
0.8	6.21117
0.81	6.20459
0.82	6.2059
0.83	6.20327
0.84	6.20163
0.85	6.18649
0.86	6.17926
0.87	6.18288
0.88	6.17399
0.89	6.17728
0.9	6.16116
0.91	6.16149
0.92	6.15853
0.93	6.15491
0.94	6.14899
0.95	6.1457
0.96	6.14406
0.97	6.13518
0.98	6.12958
0.99	6.12827
1	6.12794
1.01	6.11281
1.02	6.10294
1.03	6.09965
1.04	6.09504
1.05	6.09373
1.06	6.08649
1.07	6.08583
1.08	6.07958
1.09	6.06971
1.1	6.07564
1.11	6.07827
1.12	6.06544
1.13	6.0582
1.14	6.04998
1.15	6.04767
1.16	6.04537
1.17	6.03616
1.18	6.03156
1.19	6.02761
1.2	6.02432
1.21	6.01642
1.22	6.01379
1.23	6.0082
1.24	6.00063
1.25	5.99504
1.26	5.99044
1.27	5.98846
1.28	5.9855
1.29	5.97826
1.3	5.97366
1.31	5.96905
1.32	5.95951
1.33	5.96247
1.34	5.95096
1.35	5.95359
1.36	5.948
1.37	5.93879
1.38	5.93353
1.39	5.93024
1.4	5.92136
1.41	5.9253
1.42	5.91675
1.43	5.9105
1.44	5.90129
1.45	5.89931
1.46	5.898
1.47	5.88714
1.48	5.8878
1.49	5.88089
1.5	5.87333
1.51	5.86708
1.52	5.86839
1.53	5.86214
1.54	5.86116
1.55	5.85129
1.56	5.84569
1.57	5.83747
1.58	5.84043
1.59	5.83484
1.6	5.8253
1.61	5.81872
1.62	5.81971
1.63	5.80556
1.64	5.80523
1.65	5.80622
1.66	5.79635
1.67	5.78879
1.68	5.78352
1.69	5.78319
1.7	5.77365
1.71	5.76576
1.72	5.76378
1.73	5.76444
1.74	5.7526
1.75	5.74964
1.76	5.74602
1.77	5.73549
1.78	5.73911
1.79	5.72793
1.8	5.72859
1.81	5.71543
1.82	5.70786
1.83	5.70227
1.84	5.70161
1.85	5.70062
1.86	5.68911
1.87	5.68648
1.88	5.68089
1.89	5.67694
1.9	5.67497
1.91	5.66937
1.92	5.65951
1.93	5.65029
1.94	5.65523
1.95	5.65128
1.96	5.64075
1.97	5.6345
1.98	5.6345
1.99	5.62365
2	5.62464
2.01	5.62529
2.02	5.61411
2.03	5.60687
2.04	5.60457
2.05	5.60227
2.06	5.59799
2.07	5.58549
2.08	5.59108
2.09	5.57398
2.1	5.57431
2.11	5.57694
2.12	5.56181
2.13	5.5572
2.14	5.55983
2.15	5.55161
2.16	5.54963
2.17	5.53878
2.18	5.53351
2.19	5.52924
2.2	5.5243
2.21	5.51575
2.22	5.51674
2.23	5.51246
2.24	5.50983
2.25	5.50259
2.26	5.49141
2.27	5.49272
2.28	5.48417
2.29	5.48483
2.3	5.47693
2.31	5.47299
2.32	5.46542
2.33	5.45983
2.34	5.45983
2.35	5.45193
2.36	5.44996
2.37	5.44831
2.38	5.4447
2.39	5.43351
2.4	5.4345
2.41	5.42726
2.42	5.41904
2.43	5.4118
2.44	5.41081
2.45	5.40555
2.46	5.39568
2.47	5.40029
2.48	5.39206
2.49	5.38581
2.5	5.37923
2.51	5.37002
2.52	5.37627
2.53	5.36542
2.54	5.36015
2.55	5.35456
2.56	5.35193
2.57	5.34667
2.58	5.33844
2.59	5.33482
2.6	5.33548
2.61	5.32496
2.62	5.31969
2.63	5.31311
2.64	5.31311
2.65	5.31278
2.66	5.30061
2.67	5.29732
2.68	5.29403
2.69	5.28811
2.7	5.28811
2.71	5.28482
2.72	5.27232
2.73	5.2664
2.74	5.26607
2.75	5.25916
2.76	5.25785
2.77	5.24403
2.78	5.24535
2.79	5.24206
2.8	5.23449
2.81	5.23318
2.82	5.22462
2.83	5.22298
2.84	5.22133
2.85	5.21147
2.86	5.20916
2.87	5.19732
2.88	5.19502
2.89	5.19864
2.9	5.18811
2.91	5.18646
2.92	5.17462
2.93	5.17693
2.94	5.17199
2.95	5.15883
2.96	5.15949
2.97	5.16081
2.98	5.15258
2.99	5.14469
3	5.13942
3.01	5.1414
3.02	5.1335
3.03	5.13186
3.04	5.12857
3.05	5.12956
3.06	5.1164
3.07	5.10752
3.08	5.11179
3.09	5.10784
3.1	5.09798
3.11	5.10192
3.12	5.09798
3.13	5.09008
3.14	5.0858
3.15	5.07955
3.16	5.07034
3.17	5.07133
3.18	5.06771
3.19	5.0608
3.2	5.05653
3.21	5.06113
3.22	5.05488
3.23	5.04764
3.24	5.04534
3.25	5.0358
3.26	5.03087
3.27	5.02692
3.28	5.02462
3.29	5.01574
3.3	5.01376
3.31	5.01442
3.32	5.00981
3.33	5.0006
3.34	5.00028
3.35	5.00028
3.36	4.99468
3.37	4.99008
3.38	4.97758
3.39	4.97067
3.4	4.96902
3.41	4.96639
3.42	4.96113
3.43	4.95587
3.44	4.95521
3.45	4.9506
3.46	4.93942
3.47	4.93777
3.48	4.93448
3.49	4.93152
3.5	4.93054
3.51	4.9279
3.52	4.92165
3.53	4.91475
3.54	4.91409
3.55	4.90817
3.56	4.89896
3.57	4.89764
3.58	4.89468
3.59	4.88777
3.6	4.88547
3.61	4.88086
3.62	4.87889
3.63	4.87494
3.64	4.87034
3.65	4.86343
3.66	4.85948
3.67	4.85224
3.68	4.84994
3.69	4.85192
3.7	4.84797
3.71	4.84073
3.72	4.83678
3.73	4.83152
3.74	4.82922
3.75	4.82659
3.76	4.82034
3.77	4.80882
3.78	4.80816
3.79	4.80323
3.8	4.80422
3.81	4.80027
3.82	4.79665
3.83	4.79303
3.84	4.79007
3.85	4.78612
3.86	4.77691
3.87	4.77889
3.88	4.77231
3.89	4.77395
3.9	4.76573
3.91	4.75849
3.92	4.75685
3.93	4.75323
3.94	4.74764
3.95	4.74468
3.96	4.74599
3.97	4.73744
3.98	4.73217
3.99	4.72889
4	4.7256
4.01	4.72165
4.02	4.70849
4.03	4.71112
4.04	4.7075
4.05	4.70619
4.06	4.70388
4.07	4.70125
4.08	4.69862
4.09	4.68711
4.1	4.68415
4.11	4.68184
4.12	4.67691
4.13	4.67658
4.14	4.67329
4.15	4.67329
4.16	4.66408
4.17	4.66244
4.18	4.66145
4.19	4.65948
4.2	4.65783
4.21	4.65059
4.22	4.64401
4.23	4.64105
4.24	4.63776
4.25	4.63118
4.26	4.6325
4.27	4.62822
4.28	4.62592
4.29	4.62197
4.3	4.61572
4.31	4.61276
4.32	4.6098
4.33	4.60947
4.34	4.60421
4.35	4.5973
4.36	4.59533
4.37	4.595
4.38	4.58743
4.39	4.58053
4.4	4.57658
4.41	4.57789
4.42	4.57
4.43	4.56901
4.44	4.56967
4.45	4.56737
4.46	4.56671
4.47	4.56046
4.48	4.55421
4.49	4.55059
4.5	4.54664
4.51	4.54796
4.52	4.5496
4.53	4.53612
4.54	4.53875
4.55	4.53612
4.56	4.53513
4.57	4.52921
4.58	4.52888
4.59	4.51539
4.6	4.51605
4.61	4.51605
4.62	4.5144
4.63	4.5121
4.64	4.51079
4.65	4.51243
4.66	4.50552
4.67	4.50059
4.68	4.4973
4.69	4.49302
4.7	4.4894
4.71	4.4848
4.72	4.48151
4.73	4.47756
4.74	4.47493
4.75	4.4746
4.76	4.47
4.77	4.45947
4.78	4.46177
4.79	4.45684
4.8	4.45453
4.81	4.45486
4.82	4.45157
4.83	4.44434
4.84	4.44105
4.85	4.43677
4.86	4.43545
4.87	4.43249
4.88	4.43315
4.89	4.4269
4.9	4.4269
4.91	4.42295
4.92	4.42032
4.93	4.41703
4.94	4.41111
4.95	4.40749
4.96	4.40585
4.97	4.40914
4.98	4.40289
4.99	4.3996
5	4.39762
5.01	4.39532
5.02	4.38611
5.03	4.38776
5.04	4.3871
5.05	4.38216
5.06	4.37558
5.07	4.37591
5.08	4.37197
5.09	4.36637
5.1	4.36308
5.11	4.3644
5.12	4.36407
5.13	4.35749
5.14	4.35881
5.15	4.35322
5.16	4.34729
5.17	4.34697
5.18	4.34631
5.19	4.34302
5.2	4.33775
5.21	4.33414
5.22	4.33019
5.23	4.33479
5.24	4.33381
5.25	4.33282
5.26	4.32723
5.27	4.31933
5.28	4.32328
5.29	4.31933
5.3	4.31506
5.31	4.31506
5.32	4.31473
5.33	4.31242
5.34	4.30321
5.35	4.30453
5.36	4.2996
5.37	4.29762
5.38	4.29499
5.39	4.29762
5.4	4.29302
5.41	4.28644
5.42	4.28611
5.43	4.28479
5.44	4.28315
5.45	4.27887
5.46	4.27887
5.47	4.27887
5.48	4.26966
5.49	4.26933
5.5	4.26933
5.51	4.26604
5.52	4.25848
5.53	4.25453
5.54	4.25519
5.55	4.25749
5.56	4.25321
5.57	4.25387
5.58	4.24828
5.59	4.24466
5.6	4.24696
5.61	4.24137
5.62	4.24367
5.63	4.23775
5.64	4.23742
5.65	4.23117
5.66	4.23019
5.67	4.22492
5.68	4.23183
5.69	4.2292
5.7	4.22196
5.71	4.21703
5.72	4.21867
5.73	4.21538
5.74	4.20815
5.75	4.20716
5.76	4.21111
5.77	4.20913
5.78	4.2088
5.79	4.20321
5.8	4.19762
5.81	4.19893
5.82	4.19861
5.83	4.19729
5.84	4.19663
5.85	4.18676
5.86	4.18347
5.87	4.18512
5.88	4.18347
5.89	4.18742
5.9	4.17854
5.91	4.17689
5.92	4.17196
5.93	4.17064
5.94	4.17262
5.95	4.16834
5.96	4.16374
5.97	4.16308
5.98	4.16768
5.99	4.16078
6	4.1565
6.01	4.15584
6.02	4.14663
6.03	4.1463
6.04	4.1486
6.05	4.14433
6.06	4.14992
6.07	4.14005
6.08	4.13545
6.09	4.13577
6.1	4.13808
6.11	4.13577
6.12	4.13512
6.13	4.12952
6.14	4.12755
6.15	4.13084
6.16	4.12591
6.17	4.11933
6.18	4.12064
6.19	4.12262
6.2	4.12196
6.21	4.11867
6.22	4.11373
6.23	4.119
6.24	4.11406
6.25	4.11077
6.26	4.1111
6.27	4.10683
6.28	4.10288
6.29	4.10189
6.3	4.10288
6.31	4.09597
6.32	4.08808
6.33	4.09597
6.34	4.09433
6.35	4.09564
6.36	4.09367
6.37	4.08084
6.38	4.08281
6.39	4.0884
6.4	4.08413
6.41	4.07722
6.42	4.08446
6.43	4.07492
6.44	4.07393
6.45	4.07294
6.46	4.08084
6.47	4.07722
6.48	4.07393
6.49	4.06867
6.5	4.06834
6.51	4.07031
6.52	4.06669
6.53	4.06768
6.54	4.06571
6.55	4.05979
6.56	4.05452
6.57	4.05715
6.58	4.05386
6.59	4.05715
6.6	4.05255
6.61	4.04794
6.62	4.05025
6.63	4.04696
6.64	4.0486
6.65	4.04432
6.66	4.04268
6.67	4.04038
6.68	4.03906
6.69	4.03511
6.7	4.03478
6.71	4.02952
6.72	4.03149
6.73	4.02656
6.74	4.02557
6.75	4.02557
6.76	4.0236
6.77	4.02393
6.78	4.02163
6.79	4.02064
6.8	4.01998
6.81	4.01768
6.82	4.01176
6.83	4.01143
6.84	4.01307
6.85	4.01077
6.86	4.01439
6.87	4.00649
6.88	4.00715
6.89	4.00945
6.9	4.00715
6.91	4.00978
6.92	3.99959
6.93	4.0009
6.94	4.00189
6.95	4.00353
6.96	3.99893
6.97	3.99399
6.98	3.99268
6.99	3.99136
7	3.99268
7.01	3.9861
7.02	3.99038
7.03	3.99005
7.04	3.99103
7.05	3.98774
7.06	3.98741
7.07	3.98182
7.08	3.97755
7.09	3.98084
7.1	3.98084
7.11	3.97426
7.12	3.97524
7.13	3.97459
7.14	3.9736
7.15	3.9713
7.16	3.9736
7.17	3.97623
7.18	3.96603
7.19	3.96537
7.2	3.96636
7.21	3.96768
7.22	3.96472
7.23	3.96176
7.24	3.95682
7.25	3.95616
7.26	3.96143
7.27	3.96373
7.28	3.95452
7.29	3.95353
7.3	3.9532
7.31	3.95551
7.32	3.95616
7.33	3.95156
7.34	3.95189
7.35	3.94958
7.36	3.94991
7.37	3.94662
7.38	3.95024
7.39	3.94531
7.4	3.94695
7.41	3.94794
7.42	3.94893
7.43	3.94498
7.44	3.93873
7.45	3.93807
7.46	3.93972
7.47	3.93643
7.48	3.93511
7.49	3.93708
7.5	3.9361
7.51	3.93379
7.52	3.93347
7.53	3.93478
7.54	3.92985
7.55	3.92886
7.56	3.9305
7.57	3.92886
7.58	3.9282
7.59	3.92162
7.6	3.92195
7.61	3.92096
7.62	3.92162
7.63	3.91735
7.64	3.91636
7.65	3.91768
7.66	3.91471
7.67	3.91439
7.68	3.91866
7.69	3.91504
7.7	3.90748
7.71	3.91208
7.72	3.90814
7.73	3.90781
7.74	3.90254
7.75	3.9055
7.76	3.90386
7.77	3.90189
7.78	3.90287
7.79	3.90287
7.8	3.90386
7.81	3.9009
7.82	3.89399
7.83	3.88807
7.84	3.89235
7.85	3.89202
7.86	3.89333
7.87	3.88642
7.88	3.89037
7.89	3.88675
7.9	3.88313
7.91	3.8861
7.92	3.88906
7.93	3.88478
7.94	3.88083
7.95	3.88511
7.96	3.87919
7.97	3.87853
7.98	3.88017
7.99	3.87853
8	3.88017
8.01	3.88017
8.02	3.87623
8.03	3.87754
8.04	3.87919
8.05	3.87853
8.06	3.87392
8.07	3.87359
8.08	3.87261
8.09	3.87359
8.1	3.87195
8.11	3.87195
8.12	3.87228
8.13	3.87261
8.14	3.86932
8.15	3.86734
8.16	3.87162
8.17	3.86767
8.18	3.8657
8.19	3.86504
8.2	3.87129
8.21	3.86734
8.22	3.8634
8.23	3.85715
8.24	3.85978
8.25	3.85813
8.26	3.85912
8.27	3.85978
8.28	3.85945
8.29	3.86011
8.3	3.85813
8.31	3.8555
8.32	3.8578
8.33	3.85583
8.34	3.85583
8.35	3.85188
8.36	3.85419
8.37	3.8532
8.38	3.85254
8.39	3.85616
8.4	3.85188
8.41	3.8532
8.42	3.8555
8.43	3.85583
8.44	3.85057
8.45	3.85188
8.46	3.85024
8.47	3.84498
8.48	3.84728
8.49	3.84498
8.5	3.84695
8.51	3.84958
8.52	3.84267
8.53	3.84794
8.54	3.84629
8.55	3.84465
8.56	3.84366
8.57	3.83774
8.58	3.83807
8.59	3.84136
8.6	3.83774
8.61	3.83544
8.62	3.83642
8.63	3.83741
8.64	3.8384
8.65	3.8305
8.66	3.83478
8.67	3.83379
8.68	3.83116
8.69	3.83215
8.7	3.82886
8.71	3.83511
8.72	3.83182
8.73	3.83741
8.74	3.82919
8.75	3.82951
8.76	3.82951
8.77	3.82688
8.78	3.82063
8.79	3.82458
8.8	3.82623
8.81	3.82294
8.82	3.82195
8.83	3.82359
8.84	3.82294
8.85	3.82129
8.86	3.82392
8.87	3.82754
8.88	3.82524
8.89	3.82063
8.9	3.81767
8.91	3.81767
8.92	3.81175
8.93	3.81241
8.94	3.82162
8.95	3.82195
8.96	3.81669
8.97	3.81438
8.98	3.81405
8.99	3.81241
9	3.81603
9.01	3.81208
9.02	3.81109
9.03	3.80978
9.04	3.81241
9.05	3.81142
9.06	3.80978
9.07	3.81405
9.08	3.81011
9.09	3.80813
9.1	3.80418
9.11	3.80155
9.12	3.80221
9.13	3.80221
9.14	3.80353
9.15	3.80353
9.16	3.80155
9.17	3.79991
9.18	3.80155
9.19	3.79793
9.2	3.79695
9.21	3.79793
9.22	3.79728
9.23	3.79892
9.24	3.79465
9.25	3.79563
9.26	3.79432
9.27	3.793
9.28	3.793
9.29	3.79168
9.3	3.79267
9.31	3.78675
9.32	3.78576
9.33	3.79267
9.34	3.79136
9.35	3.78675
9.36	3.78774
9.37	3.78543
9.38	3.78247
9.39	3.78774
9.4	3.78839
9.41	3.78379
9.42	3.78511
9.43	3.78478
9.44	3.78576
9.45	3.78511
9.46	3.78543
9.47	3.78609
9.48	3.78149
9.49	3.7828
9.5	3.78543
9.51	3.78511
9.52	3.78478
9.53	3.78214
9.54	3.78116
9.55	3.77853
9.56	3.78116
9.57	3.77984
9.58	3.77853
9.59	3.77622
9.6	3.78346
9.61	3.77589
9.62	3.77951
9.63	3.77853
9.64	3.77458
9.65	3.77951
9.66	3.77293
9.67	3.77359
9.68	3.77688
9.69	3.77853
9.7	3.77458
9.71	3.77589
9.72	3.7726
9.73	3.77293
9.74	3.77458
9.75	3.77293
9.76	3.76866
9.77	3.77162
9.78	3.76964
9.79	3.77228
9.8	3.77359
9.81	3.77359
9.82	3.77326
9.83	3.76997
9.84	3.76964
9.85	3.77228
9.86	3.76635
9.87	3.76767
9.88	3.76537
9.89	3.7703
9.9	3.76767
9.91	3.768
9.92	3.7703
9.93	3.76767
9.94	3.76471
9.95	3.7657
9.96	3.76274
9.97	3.76833
9.98	3.76537
9.99	3.76175
10	3.76537
10.01	3.7657
10.02	3.76175
10.03	3.75747
10.04	3.76274
10.05	3.76175
10.06	3.75978
10.07	3.76175
10.08	3.76241
10.09	3.75945
10.1	3.75616
10.11	3.75879
10.12	3.75747
10.13	3.75451
10.14	3.75451
10.15	3.7578
10.16	3.75056
10.17	3.75517
10.18	3.75747
10.19	3.75912
10.2	3.75714
10.21	3.75945
10.22	3.76175
10.23	3.7532
10.24	3.75813
10.25	3.7578
10.26	3.75616
10.27	3.75188
10.28	3.75122
10.29	3.75024
10.3	3.75385
10.31	3.75484
10.32	3.75089
10.33	3.75616
10.34	3.74892
10.35	3.75089
10.36	3.74892
10.37	3.74859
10.38	3.74662
10.39	3.75056
10.4	3.74859
10.41	3.75353
10.42	3.74793
10.43	3.74629
10.44	3.74037
10.45	3.74859
10.46	3.74431
10.47	3.74267
10.48	3.74333
10.49	3.743
10.5	3.74366
10.51	3.74333
10.52	3.74234
10.53	3.74431
10.54	3.74662
10.55	3.74563
10.56	3.74464
10.57	3.73971
10.58	3.73708
10.59	3.74037
10.6	3.73905
10.61	3.74037
10.62	3.74004
10.63	3.73938
10.64	3.73741
10.65	3.74366
10.66	3.74004
10.67	3.73576
10.68	3.73609
10.69	3.73313
10.7	3.73905
10.71	3.73774
10.72	3.73905
10.73	3.73806
10.74	3.73412
10.75	3.73181
10.76	3.73445
10.77	3.73543
10.78	3.73181
10.79	3.73214
10.8	3.73313
10.81	3.7282
10.82	3.73642
10.83	3.73116
10.84	3.73379
10.85	3.73412
10.86	3.7351
10.87	3.73445
10.88	3.72984
10.89	3.7328
10.9	3.73247
10.91	3.73346
10.92	3.72754
10.93	3.7282
10.94	3.73017
10.95	3.72458
10.96	3.72688
10.97	3.72787
10.98	3.72688
10.99	3.72721
11	3.7282
11.01	3.73181
11.02	3.7305
11.03	3.72392
11.04	3.72688
11.05	3.72852
11.06	3.72458
11.07	3.72359
11.08	3.72392
11.09	3.72885
11.1	3.7282
11.11	3.7305
11.12	3.72655
11.13	3.73017
11.14	3.72984
11.15	3.72425
11.16	3.72918
11.17	3.72392
11.18	3.7203
11.19	3.72589
11.2	3.7203
11.21	3.72523
11.22	3.72425
11.23	3.72688
11.24	3.72491
11.25	3.71866
11.26	3.72227
11.27	3.7282
11.28	3.72425
11.29	3.71964
11.3	3.72392
11.31	3.72293
11.32	3.7226
11.33	3.71833
11.34	3.72227
11.35	3.72425
11.36	3.72754
11.37	3.72326
11.38	3.7203
11.39	3.72096
11.4	3.71866
11.41	3.71504
11.42	3.7157
11.43	3.71964
11.44	3.72063
11.45	3.71931
11.46	3.71241
11.47	3.7157
11.48	3.71701
11.49	3.71866
11.5	3.71898
11.51	3.71997
11.52	3.718
11.53	3.71602
11.54	3.71668
11.55	3.71734
11.56	3.7157
11.57	3.71471
11.58	3.71471
11.59	3.71734
11.6	3.71767
11.61	3.71339
11.62	3.71306
11.63	3.71142
11.64	3.71043
11.65	3.70846
11.66	3.71208
11.67	3.71208
11.68	3.71142
11.69	3.70944
11.7	3.70747
11.71	3.70484
11.72	3.70484
11.73	3.71241
11.74	3.70944
11.75	3.70517
11.76	3.70517
11.77	3.70714
11.78	3.70977
11.79	3.70912
11.8	3.70879
11.81	3.70352
11.82	3.7078
11.83	3.70879
11.84	3.70583
11.85	3.70517
11.86	3.70319
11.87	3.7055
11.88	3.70616
11.89	3.70583
11.9	3.70484
11.91	3.70912
11.92	3.70846
11.93	3.71175
11.94	3.70879
11.95	3.70287
11.96	3.7055
11.97	3.7055
11.98	3.69892
11.99	3.70385
12	3.70517
12.01	3.70319
12.02	3.70254
12.03	3.70418
12.04	3.70451
12.05	3.70023
12.06	3.70451
12.07	3.70287
12.08	3.70122
12.09	3.69727
12.1	3.69991
12.11	3.70287
12.12	3.70221
12.13	3.70089
12.14	3.69958
12.15	3.70188
12.16	3.70352
12.17	3.70418
12.18	3.70451
12.19	3.70089
12.2	3.70056
12.21	3.70089
12.22	3.70221
12.23	3.70122
12.24	3.70221
12.25	3.69793
12.26	3.70188
12.27	3.70155
12.28	3.70188
12.29	3.70221
12.3	3.69859
12.31	3.70023
12.32	3.69596
12.33	3.69793
12.34	3.70056
12.35	3.70188
12.36	3.70122
12.37	3.70188
12.38	3.69958
12.39	3.69925
12.4	3.69925
12.41	3.6976
12.42	3.69859
12.43	3.69267
12.44	3.69629
12.45	3.70023
12.46	3.70517
12.47	3.69892
12.48	3.69892
12.49	3.69694
12.5	3.69431
12.51	3.69694
12.52	3.69925
12.53	3.69793
12.54	3.69431
12.55	3.69826
12.56	3.69464
12.57	3.69596
12.58	3.6953
12.59	3.6976
12.6	3.69859
12.61	3.69497
12.62	3.69398
12.63	3.69694
12.64	3.69497
12.65	3.69464
12.66	3.69497
12.67	3.69563
12.68	3.69464
12.69	3.69135
12.7	3.69398
12.71	3.70023
12.72	3.6976
12.73	3.69201
12.74	3.69629
12.75	3.69037
12.76	3.69826
12.77	3.69563
12.78	3.68839
12.79	3.69563
12.8	3.69135
12.81	3.68806
12.82	3.69168
12.83	3.69431
12.84	3.68971
12.85	3.69037
12.86	3.68938
12.87	3.69267
12.88	3.68872
12.89	3.68872
12.9	3.69069
12.91	3.69333
12.92	3.68938
12.93	3.68971
12.94	3.69201
12.95	3.68642
12.96	3.69004
12.97	3.6953
12.98	3.69102
12.99	3.69069
13	3.68872
13.01	3.68938
13.02	3.69102
13.03	3.68708
13.04	3.68609
13.05	3.68773
13.06	3.69037
13.07	3.68905
13.08	3.68675
13.09	3.68971
13.1	3.68872
13.11	3.68543
13.12	3.68477
13.13	3.68675
13.14	3.68971
13.15	3.68477
13.16	3.68675
13.17	3.68083
13.18	3.67852
13.19	3.68412
13.2	3.68675
13.21	3.68313
13.22	3.68313
13.23	3.68444
13.24	3.68477
13.25	3.68609
13.26	3.68675
13.27	3.68872
13.28	3.68346
13.29	3.68181
13.3	3.67754
13.31	3.67951
13.32	3.68115
13.33	3.68148
13.34	3.68313
13.35	3.68938
13.36	3.68247
13.37	3.68115
13.38	3.68148
13.39	3.68412
13.4	3.6805
13.41	3.68444
13.42	3.68214
13.43	3.68313
13.44	3.68148
13.45	3.67688
13.46	3.67918
13.47	3.67885
13.48	3.68214
13.49	3.68313
13.5	3.68346
13.51	3.68379
13.52	3.68181
13.53	3.6805
13.54	3.68346
13.55	3.68313
13.56	3.6851
13.57	3.68017
13.58	3.67885
13.59	3.68083
13.6	3.67951
13.61	3.68214
13.62	3.6805
13.63	3.67852
13.64	3.68148
13.65	3.67984
13.66	3.67984
13.67	3.68083
13.68	3.68083
13.69	3.68083
13.7	3.67754
13.71	3.67984
13.72	3.67819
13.73	3.67458
13.74	3.67523
13.75	3.67786
13.76	3.67918
13.77	3.68017
13.78	3.67918
13.79	3.68115
13.8	3.6805
13.81	3.67754
13.82	3.67589
13.83	3.67951
13.84	3.67852
13.85	3.67754
13.86	3.67754
13.87	3.68148
13.88	3.67622
13.89	3.67589
13.9	3.67622
13.91	3.67786
13.92	3.67688
13.93	3.6749
13.94	3.67458
13.95	3.67786
13.96	3.67819
13.97	3.67523
13.98	3.67721
13.99	3.67458
14	3.66964
14.01	3.67556
14.02	3.6726
14.03	3.67589
14.04	3.67359
14.05	3.67754
14.06	3.6749
14.07	3.67721
14.08	3.67984
14.09	3.67589
14.1	3.66997
14.11	3.66602
14.12	3.66833
14.13	3.67425
14.14	3.6726
14.15	3.67293
14.16	3.66898
14.17	3.66504
14.18	3.67227
14.19	3.67096
14.2	3.67589
14.21	3.67819
14.22	3.67227
14.23	3.67063
14.24	3.67161
14.25	3.66865
14.26	3.66668
14.27	3.66668
14.28	3.66701
14.29	3.66931
14.3	3.66602
14.31	3.66997
14.32	3.67622
14.33	3.67523
14.34	3.6703
14.35	3.67754
14.36	3.67293
14.37	3.66964
14.38	3.67392
14.39	3.67129
14.4	3.66997
14.41	3.6726
14.42	3.67063
14.43	3.668
14.44	3.66833
14.45	3.66701
14.46	3.67392
14.47	3.67293
14.48	3.66833
14.49	3.66964
14.5	3.66833
14.51	3.66767
14.52	3.66833
14.53	3.66569
14.54	3.66635
14.55	3.66306
14.56	3.66931
14.57	3.66569
14.58	3.66536
14.59	3.67161
14.6	3.66372
14.61	3.66668
14.62	3.66438
14.63	3.66438
14.64	3.66833
14.65	3.66438
14.66	3.66668
14.67	3.66602
14.68	3.66372
14.69	3.668
14.7	3.66438
14.71	3.66734
14.72	3.66701
14.73	3.66175
14.74	3.66504
14.75	3.6601
14.76	3.66306
14.77	3.66536
14.78	3.66372
14.79	3.66504
14.8	3.66207
14.81	3.6601
14.82	3.65648
14.83	3.66142
14.84	3.66076
14.85	3.66438
14.86	3.66471
14.87	3.66833
14.88	3.66668
14.89	3.66372
14.9	3.66142
14.91	3.66767
14.92	3.66339
14.93	3.65977
14.94	3.668
14.95	3.66405
14.96	3.66569
14.97	3.66109
14.98	3.66207
14.99	3.66076
15	3.66536
15.01	3.66306
15.02	3.66504
15.03	3.66734
15.04	3.66964
15.05	3.66372
15.06	3.66405
15.07	3.66339
15.08	3.66767
15.09	3.66997
15.1	3.66372
15.11	3.66471
15.12	3.66438
15.13	3.66964
15.14	3.66405
15.15	3.66273
15.16	3.66306
15.17	3.66536
15.18	3.65977
15.19	3.66273
15.2	3.66339
15.21	3.66076
15.22	3.66076
15.23	3.65977
15.24	3.66438
15.25	3.65681
15.26	3.66372
15.27	3.66471
15.28	3.6578
15.29	3.65911
15.3	3.6601
15.31	3.66142
15.32	3.66273
15.33	3.66635
15.34	3.66207
15.35	3.6624
15.36	3.65714
15.37	3.65813
15.38	3.65879
15.39	3.66306
15.4	3.65911
15.41	3.6555
15.42	3.65813
15.43	3.65944
15.44	3.65188
15.45	3.65254
15.46	3.66043
15.47	3.65977
15.48	3.65977
15.49	3.65879
15.5	3.65813
15.51	3.65418
15.52	3.65615
15.53	3.6578
15.54	3.65714
15.55	3.65911
15.56	3.65911
15.57	3.66142
15.58	3.66109
15.59	3.65648
15.6	3.65747
15.61	3.65714
15.62	3.65813
15.63	3.65615
15.64	3.65089
15.65	3.65582
15.66	3.65879
15.67	3.65747
15.68	3.65747
15.69	3.65747
15.7	3.65747
15.71	3.65615
15.72	3.65747
15.73	3.65582
15.74	3.65385
15.75	3.65517
15.76	3.65451
15.77	3.65648
15.78	3.65254
15.79	3.65517
15.8	3.65352
15.81	3.65418
15.82	3.65122
15.83	3.6578
15.84	3.65352
15.85	3.65747
15.86	3.65846
15.87	3.65418
15.88	3.65846
15.89	3.65977
15.9	3.65517
15.91	3.64892
15.92	3.65681
15.93	3.65813
15.94	3.66043
15.95	3.65879
15.96	3.65813
15.97	3.65648
15.98	3.65221
15.99	3.65352
16	3.65714
16.01	3.65023
16.02	3.64925
16.03	3.65254
16.04	3.65517
16.05	3.65188
16.06	3.65418
16.07	3.65451
16.08	3.65352
16.09	3.65254
16.1	3.65451
16.11	3.65451
16.12	3.65122
16.13	3.65484
16.14	3.65385
16.15	3.65418
16.16	3.65122
16.17	3.6453
16.18	3.64661
16.19	3.65056
16.2	3.65155
16.21	3.65451
16.22	3.64826
16.23	3.65056
16.24	3.65418
16.25	3.65056
16.26	3.64628
16.27	3.65221
16.28	3.65352
16.29	3.65352
16.3	3.6499
16.31	3.64892
16.32	3.64793
16.33	3.64694
16.34	3.64694
16.35	3.6499
16.36	3.65221
16.37	3.65089
16.38	3.64563
16.39	3.64267
16.4	3.64069
16.41	3.64925
16.42	3.65056
16.43	3.6476
16.44	3.64727
16.45	3.65352
16.46	3.65056
16.47	3.64727
16.48	3.64957
16.49	3.65023
16.5	3.64892
16.51	3.64826
16.52	3.64727
16.53	3.65089
16.54	3.65319
16.55	3.65056
16.56	3.64694
16.57	3.64925
16.58	3.65385
16.59	3.64661
16.6	3.64497
16.61	3.643
16.62	3.64596
16.63	3.64793
16.64	3.6476
16.65	3.64596
16.66	3.64563
16.67	3.6453
16.68	3.64464
16.69	3.64826
16.7	3.64464
16.71	3.64365
16.72	3.65023
16.73	3.64727
16.74	3.6476
16.75	3.64859
16.76	3.65089
16.77	3.6476
16.78	3.64332
16.79	3.64398
16.8	3.64925
16.81	3.64957
16.82	3.64201
16.83	3.64398
16.84	3.64826
16.85	3.65484
16.86	3.65089
16.87	3.65056
16.88	3.64365
16.89	3.64234
16.9	3.6453
16.91	3.64628
16.92	3.64267
16.93	3.64694
16.94	3.64332
16.95	3.64135
16.96	3.64332
16.97	3.6453
16.98	3.64431
16.99	3.64596
17	3.64267
17.01	3.64793
17.02	3.64859
17.03	3.64826
17.04	3.64563
17.05	3.64431
17.06	3.64563
17.07	3.64201
17.08	3.64234
17.09	3.64497
17.1	3.64596
17.11	3.64398
17.12	3.6476
17.13	3.64563
17.14	3.64497
17.15	3.64596
17.16	3.64497
17.17	3.64003
17.18	3.64267
17.19	3.64069
17.2	3.643
17.21	3.64661
17.22	3.64267
17.23	3.6374
17.24	3.63806
17.25	3.64036
17.26	3.643
17.27	3.64332
17.28	3.64563
17.29	3.63938
17.3	3.64398
17.31	3.64168
17.32	3.64234
17.33	3.64234
17.34	3.643
17.35	3.64069
17.36	3.63313
17.37	3.63971
17.38	3.63642
17.39	3.63872
17.4	3.64168
17.41	3.64661
17.42	3.63938
17.43	3.64003
17.44	3.63642
17.45	3.63839
17.46	3.64201
17.47	3.64332
17.48	3.64003
17.49	3.64003
17.5	3.64003
17.51	3.64102
17.52	3.63905
17.53	3.64267
17.54	3.63872
17.55	3.64069
17.56	3.64201
17.57	3.64201
17.58	3.64168
17.59	3.64398
17.6	3.643
17.61	3.64332
17.62	3.64168
17.63	3.6351
17.64	3.63642
17.65	3.64069
17.66	3.64332
17.67	3.64102
17.68	3.64003
17.69	3.64135
17.7	3.643
17.71	3.63806
17.72	3.63642
17.73	3.6374
17.74	3.64135
17.75	3.64102
17.76	3.63971
17.77	3.63938
17.78	3.64036
17.79	3.63872
17.8	3.63411
17.81	3.63872
17.82	3.64003
17.83	3.63444
17.84	3.64267
17.85	3.643
17.86	3.64267
17.87	3.64003
17.88	3.63675
17.89	3.6328
17.9	3.63411
17.91	3.63313
17.92	3.63181
17.93	3.63806
17.94	3.63543
17.95	3.63313
17.96	3.63609
17.97	3.63872
17.98	3.6351
17.99	3.63444
18	3.63675
18.01	3.64168
18.02	3.63642
18.03	3.63477
18.04	3.64135
18.05	3.64234
18.06	3.64135
18.07	3.63938
18.08	3.63938
18.09	3.63346
18.1	3.63148
18.11	3.63477
18.12	3.63477
18.13	3.63411
18.14	3.63609
18.15	3.63477
18.16	3.63773
18.17	3.64168
18.18	3.64003
18.19	3.63642
18.2	3.6374
18.21	3.63938
18.22	3.63806
18.23	3.6351
18.24	3.64003
18.25	3.64036
18.26	3.64036
18.27	3.63609
18.28	3.63346
18.29	3.6328
18.3	3.63543
18.31	3.63675
18.32	3.63806
18.33	3.63609
18.34	3.63247
18.35	3.63181
18.36	3.63017
18.37	3.63642
18.38	3.63905
18.39	3.63543
18.4	3.63378
18.41	3.63642
18.42	3.63378
18.43	3.63346
18.44	3.63313
18.45	3.63477
18.46	3.63477
18.47	3.63938
18.48	3.63411
18.49	3.63346
18.5	3.63872
18.51	3.6351
18.52	3.63609
18.53	3.63773
18.54	3.63444
18.55	3.63444
18.56	3.63609
18.57	3.63477
18.58	3.63313
18.59	3.63346
18.6	3.6374
18.61	3.62885
18.62	3.63444
18.63	3.63346
18.64	3.63543
18.65	3.63773
18.66	3.63576
18.67	3.6328
18.68	3.63181
18.69	3.63247
18.7	3.63444
18.71	3.63905
18.72	3.63411
18.73	3.63378
18.74	3.63082
18.75	3.62819
18.76	3.62622
18.77	3.62194
18.78	3.63017
18.79	3.63707
18.8	3.63247
18.81	3.62951
18.82	3.63247
18.83	3.6328
18.84	3.62885
18.85	3.63214
18.86	3.63115
18.87	3.63477
18.88	3.62984
18.89	3.62359
18.9	3.62655
18.91	3.63082
18.92	3.63115
18.93	3.62753
18.94	3.62721
18.95	3.62918
18.96	3.63346
18.97	3.63675
18.98	3.63181
18.99	3.62951
19	3.63247
19.01	3.62951
19.02	3.63017
19.03	3.63214
19.04	3.62819
19.05	3.63247
19.06	3.63411
19.07	3.63247
19.08	3.6305
19.09	3.6305
19.1	3.63214
19.11	3.62457
19.12	3.62227
19.13	3.63082
19.14	3.62918
19.15	3.62885
19.16	3.62918
19.17	3.63017
19.18	3.62753
19.19	3.62852
19.2	3.63247
19.21	3.63115
19.22	3.62852
19.23	3.62655
19.24	3.62688
19.25	3.63017
19.26	3.62951
19.27	3.62852
19.28	3.62359
19.29	3.62852
19.3	3.62392
19.31	3.62918
19.32	3.62984
19.33	3.6305
19.34	3.62951
19.35	3.63148
19.36	3.63444
19.37	3.62819
19.38	3.62885
19.39	3.63247
19.4	3.6249
19.41	3.62885
19.42	3.63378
19.43	3.62885
19.44	3.62885
19.45	3.6305
19.46	3.62918
19.47	3.6249
19.48	3.62885
19.49	3.63017
19.5	3.63017
19.51	3.63181
19.52	3.61997
19.53	3.62786
19.54	3.63181
19.55	3.62885
19.56	3.62819
19.57	3.62721
19.58	3.63115
19.59	3.62556
19.6	3.62392
19.61	3.62359
19.62	3.62688
19.63	3.62786
19.64	3.62852
19.65	3.62622
19.66	3.62589
19.67	3.62392
19.68	3.62457
19.69	3.62622
19.7	3.62293
19.71	3.62556
19.72	3.62589
19.73	3.62721
19.74	3.63017
19.75	3.62523
19.76	3.6226
19.77	3.63115
19.78	3.62819
19.79	3.62622
19.8	3.62523
19.81	3.62523
19.82	3.62424
19.83	3.62194
19.84	3.62457
19.85	3.62753
19.86	3.62457
19.87	3.62721
19.88	3.62852
19.89	3.6249
19.9	3.6249
19.91	3.62885
19.92	3.62589
19.93	3.62819
19.94	3.62293
19.95	3.6249
19.96	3.62293
19.97	3.61865
19.98	3.62194
19.99	3.62161
20	3.61931
20.01	3.62655
20.02	3.62951
20.03	3.62556
20.04	3.62918
20.05	3.62457
20.06	3.62688
20.07	3.62951
20.08	3.62424
20.09	3.62523
20.1	3.62359
20.11	3.62589
20.12	3.62326
20.13	3.62556
20.14	3.62753
20.15	3.62721
20.16	3.62194
20.17	3.62918
20.18	3.6249
20.19	3.61997
20.2	3.62359
20.21	3.62424
20.22	3.62688
20.23	3.62424
20.24	3.62293
20.25	3.62359
20.26	3.6226
20.27	3.62194
20.28	3.62589
20.29	3.62227
20.3	3.62359
20.31	3.62326
20.32	3.62128
20.33	3.6249
20.34	3.6226
20.35	3.6226
20.36	3.6226
20.37	3.62227
20.38	3.62293
20.39	3.61635
20.4	3.61569
20.41	3.61898
20.42	3.62293
20.43	3.62359
20.44	3.61799
20.45	3.61734
20.46	3.62194
20.47	3.62227
20.48	3.62326
20.49	3.62392
20.5	3.61964
20.51	3.61799
20.52	3.62063
20.53	3.62227
20.54	3.62096
20.55	3.61602
20.56	3.62096
20.57	3.6203
20.58	3.62359
20.59	3.61997
20.6	3.62096
20.61	3.62128
20.62	3.62457
20.63	3.62457
20.64	3.61964
20.65	3.62063
20.66	3.6203
20.67	3.62063
20.68	3.6203
20.69	3.62128
20.7	3.6226
20.71	3.62424
20.72	3.6203
20.73	3.62096
20.74	3.62194
20.75	3.62063
20.76	3.61898
20.77	3.61931
20.78	3.62194
20.79	3.6249
20.8	3.61997
20.81	3.61767
20.82	3.61306
20.83	3.61832
20.84	3.62326
20.85	3.61701
20.86	3.61734
20.87	3.61668
20.88	3.61997
20.89	3.61964
20.9	3.62194
20.91	3.62523
20.92	3.61997
20.93	3.61767
20.94	3.61799
20.95	3.62293
20.96	3.62359
20.97	3.61832
20.98	3.61997
20.99	3.61405
21	3.61701
21.01	3.62293
21.02	3.62096
21.03	3.61898
21.04	3.61503
21.05	3.62063
21.06	3.61832
21.07	3.61405
21.08	3.61767
21.09	3.61964
21.1	3.61832
21.11	3.61372
21.12	3.61799
21.13	3.61931
21.14	3.61931
21.15	3.61734
21.16	3.61635
21.17	3.61898
21.18	3.61865
21.19	3.62096
21.2	3.61767
21.21	3.61832
21.22	3.61306
21.23	3.61471
21.24	3.61569
21.25	3.61635
21.26	3.61767
21.27	3.6203
21.28	3.61799
21.29	3.61767
21.3	3.61668
21.31	3.61372
21.32	3.61471
21.33	3.61503
21.34	3.61536
21.35	3.61438
21.36	3.62063
21.37	3.61832
21.38	3.61043
21.39	3.61503
21.4	3.61668
21.41	3.62063
21.42	3.61832
21.43	3.61438
21.44	3.61569
21.45	3.61438
21.46	3.6203
21.47	3.61931
21.48	3.61635
21.49	3.61898
21.5	3.62128
21.51	3.61635
21.52	3.6203
21.53	3.61832
21.54	3.61734
21.55	3.61865
21.56	3.61471
21.57	3.61865
21.58	3.61536
21.59	3.62128
21.6	3.62359
21.61	3.62227
21.62	3.61405
21.63	3.61438
21.64	3.61306
21.65	3.61668
21.66	3.62096
21.67	3.61964
21.68	3.62227
21.69	3.62293
21.7	3.61536
21.71	3.61668
21.72	3.61701
21.73	3.61668
21.74	3.61602
21.75	3.61898
21.76	3.61306
21.77	3.61503
21.78	3.62096
21.79	3.61898
21.8	3.61865
21.81	3.61635
21.82	3.61767
21.83	3.61832
21.84	3.61503
21.85	3.61273
21.86	3.61931
21.87	3.61799
21.88	3.61339
21.89	3.61174
21.9	3.61536
21.91	3.61668
21.92	3.61701
21.93	3.61438
21.94	3.61174
21.95	3.61635
21.96	3.61273
21.97	3.62194
21.98	3.62227
21.99	3.61635
22	3.62161
22.01	3.61832
22.02	3.61306
22.03	3.61339
22.04	3.61997
22.05	3.61668
22.06	3.61602
22.07	3.61372
22.08	3.61207
22.09	3.61569
22.1	3.61142
22.11	3.61898
22.12	3.61668
22.13	3.61503
22.14	3.61306
22.15	3.61536
22.16	3.61339
22.17	3.61306
22.18	3.61635
22.19	3.61405
22.2	3.61668
22.21	3.61405
22.22	3.61668
22.23	3.61405
22.24	3.60714
22.25	3.60517
22.26	3.61602
22.27	3.61668
22.28	3.61207
22.29	3.61339
22.3	3.61306
22.31	3.61306
22.32	3.61372
22.33	3.61734
22.34	3.61438
22.35	3.61701
22.36	3.61372
22.37	3.61471
22.38	3.61471
22.39	3.61339
22.4	3.61668
22.41	3.61635
22.42	3.61503
22.43	3.61964
22.44	3.61931
22.45	3.61372
22.46	3.6124
22.47	3.61569
22.48	3.61372
22.49	3.61207
22.5	3.61635
22.51	3.61471
22.52	3.61207
22.53	3.61372
22.54	3.61273
22.55	3.61668
22.56	3.61503
22.57	3.61668
22.58	3.61438
22.59	3.61273
22.6	3.61109
22.61	3.61043
22.62	3.61405
22.63	3.61174
22.64	3.60813
22.65	3.61273
22.66	3.61931
22.67	3.61109
22.68	3.61635
22.69	3.61503
22.7	3.61438
22.71	3.61602
22.72	3.61109
22.73	3.60845
22.74	3.61076
22.75	3.6101
22.76	3.61076
22.77	3.6124
22.78	3.61142
22.79	3.61273
22.8	3.6124
22.81	3.61174
22.82	3.61076
22.83	3.61339
22.84	3.6101
22.85	3.60813
22.86	3.60944
22.87	3.60615
22.88	3.60648
22.89	3.60648
22.9	3.6101
22.91	3.61372
22.92	3.61076
22.93	3.61142
22.94	3.61503
22.95	3.61174
22.96	3.60845
22.97	3.60813
22.98	3.61207
22.99	3.61207
23	3.61471
23.01	3.61438
23.02	3.60977
23.03	3.61306
23.04	3.61076
23.05	3.61109
23.06	3.61109
23.07	3.6078
23.08	3.61503
23.09	3.60977
23.1	3.61438
23.11	3.61405
23.12	3.61602
23.13	3.61503
23.14	3.6124
23.15	3.61306
23.16	3.60813
23.17	3.61043
23.18	3.60977
23.19	3.61536
23.2	3.61306
23.21	3.61668
23.22	3.61207
23.23	3.60944
23.24	3.6078
23.25	3.61043
23.26	3.61372
23.27	3.61273
23.28	3.61339
23.29	3.61306
23.3	3.61043
23.31	3.60944
23.32	3.60977
23.33	3.6101
23.34	3.61306
23.35	3.61076
23.36	3.61569
23.37	3.61503
23.38	3.61339
23.39	3.61142
23.4	3.61207
23.41	3.61372
23.42	3.61405
23.43	3.61734
23.44	3.61207
23.45	3.61339
23.46	3.60977
23.47	3.60484
23.48	3.60944
23.49	3.61372
23.5	3.60878
23.51	3.60714
23.52	3.61174
23.53	3.60813
23.54	3.60845
23.55	3.61438
23.56	3.61174
23.57	3.61273
23.58	3.61142
23.59	3.60845
23.6	3.60845
23.61	3.60977
23.62	3.6078
23.63	3.61109
23.64	3.60944
23.65	3.6078
23.66	3.60352
23.67	3.60451
23.68	3.60549
23.69	3.6078
23.7	3.60549
23.71	3.61076
23.72	3.60878
23.73	3.60878
23.74	3.6078
23.75	3.60714
23.76	3.60681
23.77	3.60845
23.78	3.60878
23.79	3.60484
23.8	3.61372
23.81	3.60615
23.82	3.60977
23.83	3.61306
23.84	3.61076
23.85	3.60845
23.86	3.61076
23.87	3.61405
23.88	3.60615
23.89	3.60451
23.9	3.60977
23.91	3.60878
23.92	3.60714
23.93	3.61109
23.94	3.61207
23.95	3.60845
23.96	3.60517
23.97	3.60813
23.98	3.60681
23.99	3.60418
24	3.60615
24.01	3.60549
24.02	3.6124
24.03	3.60549
24.04	3.60451
24.05	3.60681
24.06	3.60549
24.07	3.60878
24.08	3.60418
24.09	3.60549
24.1	3.60549
24.11	3.60681
24.12	3.60911
24.13	3.60944
24.14	3.60484
24.15	3.60747
24.16	3.60418
24.17	3.60418
24.18	3.60253
24.19	3.6078
24.2	3.5999
24.21	3.5999
24.22	3.60023
24.23	3.60056
24.24	3.60517
24.25	3.60385
24.26	3.60319
24.27	3.60319
24.28	3.60582
24.29	3.60155
24.3	3.5999
24.31	3.59431
24.32	3.60352
24.33	3.60582
24.34	3.60023
24.35	3.60319
24.36	3.60517
24.37	3.60517
24.38	3.60352
24.39	3.60089
24.4	3.60517
24.41	3.60286
24.42	3.60319
24.43	3.60056
24.44	3.60484
24.45	3.60122
24.46	3.60319
24.47	3.5999
24.48	3.59826
24.49	3.59957
24.5	3.60188
24.51	3.60023
24.52	3.60253
24.53	3.60813
24.54	3.60681
24.55	3.60648
24.56	3.60253
24.57	3.60747
24.58	3.60648
24.59	3.61043
24.6	3.61076
24.61	3.60845
24.62	3.61174
24.63	3.60484
24.64	3.60681
24.65	3.61076
24.66	3.60911
24.67	3.60878
24.68	3.60681
24.69	3.6101
24.7	3.60944
24.71	3.60747
24.72	3.60648
24.73	3.60813
24.74	3.60549
24.75	3.60813
24.76	3.60517
24.77	3.60582
24.78	3.60549
24.79	3.6078
24.8	3.60714
24.81	3.60253
24.82	3.60253
24.83	3.60582
24.84	3.60582
24.85	3.60517
24.86	3.60714
24.87	3.60451
24.88	3.60319
24.89	3.5999
24.9	3.60089
24.91	3.6022
24.92	3.60089
24.93	3.5999
24.94	3.59826
24.95	3.59859
24.96	3.60517
24.97	3.60484
24.98	3.60122
24.99	3.60122
25	3.60319
25.01	3.60418
25.02	3.60418
25.03	3.60582
25.04	3.60155
25.05	3.60319
25.06	3.60747
25.07	3.60714
25.08	3.60155
25.09	3.60155
25.1	3.60253
25.11	3.60484
25.12	3.60813
25.13	3.60747
25.14	3.60582
25.15	3.60023
25.16	3.60253
25.17	3.60089
25.18	3.60188
25.19	3.60023
25.2	3.60549
25.21	3.60648
25.22	3.60056
25.23	3.5999
25.24	3.60418
25.25	3.60253
25.26	3.60813
25.27	3.60253
25.28	3.60089
25.29	3.60352
25.3	3.60319
25.31	3.6022
25.32	3.60056
25.33	3.60286
25.34	3.59826
25.35	3.59595
25.36	3.60056
25.37	3.60089
25.38	3.60484
25.39	3.60319
25.4	3.60089
25.41	3.59826
25.42	3.60155
25.43	3.60122
25.44	3.59826
25.45	3.59727
25.46	3.59398
25.47	3.5976
25.48	3.60253
25.49	3.60089
25.5	3.59892
25.51	3.60188
25.52	3.59957
25.53	3.60089
25.54	3.60089
25.55	3.6022
25.56	3.60056
25.57	3.60155
25.58	3.60188
25.59	3.59563
25.6	3.60122
25.61	3.59826
25.62	3.59694
25.63	3.59694
25.64	3.59957
25.65	3.60023
25.66	3.59793
25.67	3.60122
25.68	3.59892
25.69	3.59727
25.7	3.60253
25.71	3.60747
25.72	3.60056
25.73	3.59859
25.74	3.59957
25.75	3.59957
25.76	3.59859
25.77	3.59694
25.78	3.59332
25.79	3.59892
25.8	3.60155
25.81	3.59957
25.82	3.59497
25.83	3.60056
25.84	3.60122
25.85	3.59826
25.86	3.5953
25.87	3.5999
25.88	3.59826
25.89	3.59892
25.9	3.60023
25.91	3.60582
25.92	3.59497
25.93	3.59661
25.94	3.59266
25.95	3.5976
25.96	3.59595
25.97	3.59694
25.98	3.59826
25.99	3.60122
26	3.59661
26.01	3.59924
26.02	3.59398
26.03	3.59332
26.04	3.59826
26.05	3.60122
26.06	3.59924
26.07	3.59892
26.08	3.59727
26.09	3.60418
26.1	3.60122
26.11	3.59595
26.12	3.59892
26.13	3.60188
26.14	3.60023
26.15	3.59332
26.16	3.59628
26.17	3.59628
26.18	3.60089
26.19	3.60253
26.2	3.60089
26.21	3.5953
26.22	3.59595
26.23	3.59826
26.24	3.60122
26.25	3.59892
26.26	3.60056
26.27	3.60549
26.28	3.60056
26.29	3.60056
26.3	3.59859
26.31	3.60122
26.32	3.60155
26.33	3.5999
26.34	3.59892
26.35	3.5976
26.36	3.59628
26.37	3.59694
26.38	3.59595
26.39	3.59661
26.4	3.59727
26.41	3.59859
26.42	3.59661
26.43	3.5999
26.44	3.5976
26.45	3.59431
26.46	3.60023
26.47	3.59826
26.48	3.59628
26.49	3.5976
26.5	3.60056
26.51	3.59826
26.52	3.59497
26.53	3.59826
26.54	3.5999
26.55	3.59661
26.56	3.59563
26.57	3.60089
26.58	3.5976
26.59	3.59957
26.6	3.59727
26.61	3.59661
26.62	3.59859
26.63	3.59661
26.64	3.5953
26.65	3.59365
26.66	3.59398
26.67	3.59464
26.68	3.59793
26.69	3.59497
26.7	3.59069
26.71	3.59332
26.72	3.59464
26.73	3.59661
26.74	3.59661
26.75	3.59332
26.76	3.59431
26.77	3.59497
26.78	3.59595
26.79	3.59497
26.8	3.59595
26.81	3.5976
26.82	3.60089
26.83	3.60089
26.84	3.59859
26.85	3.59661
26.86	3.59924
26.87	3.59661
26.88	3.5999
26.89	3.59826
26.9	3.59892
26.91	3.60089
26.92	3.6022
26.93	3.59859
26.94	3.59595
26.95	3.59826
26.96	3.5999
26.97	3.59628
26.98	3.60089
26.99	3.60451
27	3.59859
27.01	3.59595
27.02	3.60023
27.03	3.59595
27.04	3.59826
27.05	3.6022
27.06	3.59727
27.07	3.5999
27.08	3.59892
27.09	3.59595
27.1	3.59497
27.11	3.6022
27.12	3.59826
27.13	3.59497
27.14	3.59793
27.15	3.59826
27.16	3.60122
27.17	3.60023
27.18	3.59694
27.19	3.59694
27.2	3.59563
27.21	3.59957
27.22	3.5976
27.23	3.5999
27.24	3.60023
27.25	3.59727
27.26	3.59661
27.27	3.5976
27.28	3.59694
27.29	3.59957
27.3	3.59595
27.31	3.60286
27.32	3.59661
27.33	3.59859
27.34	3.59793
27.35	3.59793
27.36	3.5999
27.37	3.59727
27.38	3.59168
27.39	3.59924
27.4	3.59924
27.41	3.5976
27.42	3.59793
27.43	3.59497
27.44	3.5976
27.45	3.59628
27.46	3.5953
27.47	3.59266
27.48	3.59332
27.49	3.5976
27.5	3.59595
27.51	3.59793
27.52	3.59398
27.53	3.59365
27.54	3.5999
27.55	3.59924
27.56	3.59563
27.57	3.59398
27.58	3.59892
27.59	3.59924
27.6	3.59727
27.61	3.59365
27.62	3.59661
27.63	3.59595
27.64	3.59924
27.65	3.59563
27.66	3.59563
27.67	3.59332
27.68	3.59464
27.69	3.59892
27.7	3.60188
27.71	3.59595
27.72	3.6022
27.73	3.59826
27.74	3.59924
27.75	3.60089
27.76	3.59793
27.77	3.5976
27.78	3.5976
27.79	3.59892
27.8	3.59924
27.81	3.59563
27.82	3.60023
27.83	3.59365
27.84	3.59628
27.85	3.59694
27.86	3.59924
27.87	3.59332
27.88	3.59168
27.89	3.59497
27.9	3.59563
27.91	3.59299
27.92	3.59003
27.93	3.5874
27.94	3.59069
27.95	3.59234
27.96	3.59299
27.97	3.59266
27.98	3.59135
27.99	3.59069
28	3.59234
28.01	3.59168
28.02	3.59464
28.03	3.59036
28.04	3.58938
28.05	3.59266
28.06	3.59168
28.07	3.59365
28.08	3.5897
28.09	3.59628
28.1	3.59102
28.11	3.5874
28.12	3.58905
28.13	3.59365
28.14	3.59398
28.15	3.59201
28.16	3.59036
28.17	3.58773
28.18	3.58641
28.19	3.58641
28.2	3.58839
28.21	3.58806
28.22	3.58378
28.23	3.59168
28.24	3.59135
28.25	3.5897
28.26	3.58806
28.27	3.58411
28.28	3.58444
28.29	3.58576
28.3	3.58839
28.31	3.59464
28.32	3.59234
28.33	3.59497
28.34	3.59168
28.35	3.59234
28.36	3.59003
28.37	3.59168
28.38	3.58872
28.39	3.59266
28.4	3.59299
28.41	3.59069
28.42	3.59365
28.43	3.59299
28.44	3.59563
28.45	3.59135
28.46	3.59299
28.47	3.59168
28.48	3.59365
28.49	3.58872
28.5	3.59497
28.51	3.59398
28.52	3.58938
28.53	3.59201
28.54	3.59003
28.55	3.59201
28.56	3.5897
28.57	3.58444
28.58	3.59628
28.59	3.59069
28.6	3.59036
28.61	3.59069
28.62	3.59234
28.63	3.59201
28.64	3.59201
28.65	3.58707
28.66	3.59168
28.67	3.59036
28.68	3.59168
28.69	3.59135
28.7	3.59168
28.71	3.58674
28.72	3.58773
28.73	3.59168
28.74	3.59497
28.75	3.59135
28.76	3.58806
28.77	3.59036
28.78	3.59036
28.79	3.59365
28.8	3.59365
28.81	3.58938
28.82	3.58938
28.83	3.58806
28.84	3.59069
28.85	3.59497
28.86	3.59168
28.87	3.59365
28.88	3.58543
28.89	3.59102
28.9	3.59365
28.91	3.59234
28.92	3.58872
28.93	3.59036
28.94	3.59003
28.95	3.58313
28.96	3.58641
28.97	3.58674
28.98	3.59036
28.99	3.58576
29	3.58609
29.01	3.59398
29.02	3.59234
29.03	3.59234
29.04	3.59365
29.05	3.59003
29.06	3.58938
29.07	3.59102
29.08	3.59266
29.09	3.58905
29.1	3.59135
29.11	3.59168
29.12	3.59003
29.13	3.59497
29.14	3.58839
29.15	3.59069
29.16	3.58839
29.17	3.5897
29.18	3.59497
29.19	3.59727
29.2	3.59201
29.21	3.58938
29.22	3.5897
29.23	3.58576
29.24	3.59003
29.25	3.58806
29.26	3.59234
29.27	3.58938
29.28	3.59003
29.29	3.58543
29.3	3.59003
29.31	3.59365
29.32	3.59299
29.33	3.59102
29.34	3.59003
29.35	3.58641
29.36	3.58707
29.37	3.5874
29.38	3.59431
29.39	3.59036
29.4	3.59398
29.41	3.58938
29.42	3.58872
29.43	3.59464
29.44	3.59135
29.45	3.59135
29.46	3.58839
29.47	3.59398
29.48	3.59431
29.49	3.59003
29.5	3.59135
29.51	3.59628
29.52	3.59628
29.53	3.59628
29.54	3.59628
29.55	3.59069
29.56	3.59266
29.57	3.58641
29.58	3.59135
29.59	3.59102
29.6	3.59497
29.61	3.59069
29.62	3.58707
29.63	3.59069
29.64	3.59036
29.65	3.58773
29.66	3.58839
29.67	3.59036
29.68	3.58641
29.69	3.59036
29.7	3.58543
29.71	3.58247
29.72	3.59266
29.73	3.58576
29.74	3.58378
29.75	3.58148
29.76	3.58411
29.77	3.5828
29.78	3.58773
29.79	3.58444
29.8	3.58641
29.81	3.58576
29.82	3.58609
29.83	3.58378
29.84	3.58641
29.85	3.58444
29.86	3.58641
29.87	3.58707
29.88	3.5897
29.89	3.58674
29.9	3.58576
29.91	3.58707
29.92	3.58806
29.93	3.58411
29.94	3.58609
29.95	3.58378
29.96	3.58905
29.97	3.5897
29.98	3.58378
29.99	3.58444
30	3.5874
